EEG 1, EEG 2, EEG 3, EEG 4, EEG 5, EEG 6, EEG 7, EEG 8, TRIG
750000.100,561937.000,-519273.700,661495.500,711947.300,-42866.000,750000.100,638759.900,0.000
750000.100,286108.000,4158.229,739126.600,690819.100,-128196.400,750000.100,259578.200,0.000
748245.600,49906.800,282845.500,750000.100,626584.800,-399904.600,750000.100,125913.300,0.000
750000.100,-310258.200,516261.900,750000.100,696531.300,-37209.490,750000.100,18009.250,0.000
750000.100,-750000.100,584383.300,750000.100,750000.100,750000.100,750000.100,446474.700,0.000
750000.100,-295352.800,719131.900,750000.100,750000.100,750000.100,750000.100,750000.100,0.000
750000.100,750000.100,750000.100,750000.100,750000.100,750000.100,750000.100,750000.100,0.000
750000.100,750000.100,750000.100,750000.100,750000.100,750000.100,750000.100,750000.100,0.000
750000.100,750000.100,750000.100,750000.100,750000.100,750000.100,750000.100,750000.100,0.000
750000.100,750000.100,750000.100,750000.100,750000.100,750000.100,750000.100,750000.100,0.000
750000.100,750000.100,750000.100,750000.100,750000.100,750000.100,750000.100,750000.100,0.000
727220.400,750000.100,750000.100,750000.100,750000.100,742093.300,683358.700,750000.100,0.000
616188.600,712994.600,750000.100,750000.100,649882.000,628415.600,578818.900,642950.900,0.000
527057.900,609449.900,750000.100,750000.100,555828.400,537425.800,495045.200,550199.100,0.000
453325.800,523831.000,750000.100,750000.100,477823.100,462061.000,425479.200,472978.900,0.000
391746.700,452085.700,750000.100,736627.200,411870.700,398889.300,367239.500,408064.300,0.000
340577.000,392546.000,716693.300,638446.300,357258.000,346564.600,318974.100,354443.200,0.000
306372.800,352865.000,642668.500,572972.100,321206.800,311665.800,286823.500,318903.200,0.000
293620.800,338140.300,614406.700,548120.300,308115.900,298709.800,274937.100,305825.900,0.000
285451.600,328685.200,595924.700,531863.700,299622.700,290408.400,267260.800,297278.800,0.000
277904.400,319819.300,578734.500,516785.400,291250.800,282620.000,259961.800,289098.400,0.000
270968.100,311663.600,563001.900,503047.300,283458.800,275405.400,253284.200,281645.600,0.000
264579.700,304314.900,548789.400,490592.400,276761.200,268883.400,247361.800,275130.000,0.000
258662.100,297633.400,535794.300,479105.300,270953.000,262975.500,242006.700,269247.300,0.000
253103.700,291309.400,523513.200,468195.600,265304.600,257388.500,236850.600,263488.700,0.000
247902.400,285257.200,511852.600,457902.000,259541.300,252043.000,231846.700,257823.100,0.000
243104.700,279643.400,501079.100,448467.700,254123.200,247062.900,227243.400,252652.800,0.000
238669.000,274573.600,491310.700,439897.000,249524.300,242558.300,223171.200,248174.600,0.000
234512.100,269922.400,482295.300,431890.300,245559.100,238442.000,219461.900,244111.300,0.000
230554.600,265443.200,473640.100,424164.400,241603.500,234495.200,215813.800,240040.300,0.000
226827.400,261100.700,465311.800,416793.300,237431.500,230663.800,212206.000,235943.100,0.000
223368.500,257040.500,457565.000,410005.800,233457.900,227066.200,208866.700,232193.900,0.000
220171.000,253388.000,450553.500,403852.200,230155.800,223826.000,205945.400,228998.700,0.000
217146.800,250027.600,444052.700,398059.600,227355.600,220850.700,203276.100,226094.300,0.000
214247.200,246761.000,437734.400,392399.600,224506.800,217969.600,200613.400,223118.200,0.000
211496.200,243533.000,431564.500,386928.500,221384.200,215124.800,197922.700,220053.500,0.000
208929.000,240488.200,425791.200,381881.200,218365.900,212426.200,195411.400,217233.400,0.000
206550.900,237762.100,420586.300,377316.500,215913.800,210008.900,193249.300,214870.700,0.000
204310.500,235280.700,415775.500,373014.300,213902.200,207820.800,191297.100,212763.000,0.000
202149.700,232847.800,411045.200,368752.900,211802.500,205678.600,189314.000,210537.200,0.000
200072.000,230399.200,406351.700,364584.800,209392.800,203522.800,187260.200,208182.600,0.000
198136.300,228083.600,401955.800,360747.600,207043.700,201467.400,185343.500,206021.000,0.000
196338.600,226023.100,398012.500,357296.800,205188.700,199632.000,183710.100,204251.700,0.000
194630.100,224150.300,394366.400,354034.900,203717.200,197967.500,182240.400,202672.500,0.000
192970.000,222289.800,390743.600,350757.200,202146.200,196331.600,180717.300,200969.600,0.000
191375.100,220390.700,387105.300,347515.900,200262.300,194665.200,179115.100,199116.600,0.000
189882.900,218581.600,383686.500,344537.200,198400.200,193062.000,177614.000,197417.700,0.000
188508.200,217002.100,380659.500,341898.200,196982.700,191655.000,176372.300,196089.900,0.000
187200.400,215582.500,377872.400,339395.000,195910.900,190399.100,175274.300,194924.800,0.000
185911.100,214148.000,375053.300,336824.100,194720.500,189145.200,174104.500,193611.300,0.000
184665.700,212658.800,372177.100,334270.700,193215.000,187844.000,172839.300,192139.600,0.000
183508.600,211239.000,369471.100,331934.600,191705.600,186577.900,171650.900,190792.800,0.000
182439.500,210009.300,367106.300,329883.900,190605.700,185473.700,170688.400,189768.000,0.000
181417.400,208912.200,364940.300,327934.000,189830.700,184507.800,169858.800,188896.200,0.000
180404.500,207794.600,362724.800,325907.900,188935.400,183538.100,168954.900,187879.900,0.000
179418.500,206605.200,360425.300,323856.900,187707.500,182500.600,167925.900,186672.200,0.000
178514.900,205479.900,358272.700,322001.400,186468.500,181492.600,166968.200,185578.600,0.000
177673.600,204517.400,356411.800,320392.900,185606.000,180625.500,166220.500,184793.700,0.000
176880.600,203690.100,354736.400,318880.800,185068.000,179894.500,165603.600,184161.800,0.000
176081.300,202818.200,352977.900,317265.700,184389.700,179139.100,164891.800,183358.600,0.000
175297.100,201861.600,351117.200,315604.200,183384.700,178304.500,164063.400,182370.900,0.000
174560.600,200930.900,349356.300,314092.400,182341.800,177475.800,163283.300,181476.500,0.000
173903.200,200168.400,347880.700,312825.600,181666.900,176799.500,162711.700,180881.600,0.000
173262.700,199507.300,346548.600,311622.300,181276.100,176216.100,162231.100,180403.900,0.000
172632.300,198827.300,345148.300,310326.800,180770.000,175621.200,161666.900,179778.400,0.000
172011.400,198062.500,343630.000,308971.000,179930.100,174948.400,160986.100,178951.800,0.000
171434.200,197322.800,342200.200,307752.300,179048.600,174282.500,160346.000,178210.600,0.000
170922.100,196735.700,341036.000,306755.800,178523.700,173750.300,159900.600,177756.800,0.000
170425.000,196239.700,340003.400,305810.100,178278.100,173314.000,159554.700,177424.000,0.000
169909.800,195694.000,338869.700,304748.500,177898.600,172844.500,159113.500,176926.900,0.000
169403.200,195061.700,337614.100,303627.400,177190.000,172294.000,158549.800,176242.100,0.000
168941.600,194450.000,336439.300,302636.600,176436.100,171744.200,158019.800,175624.400,0.000
168536.300,193978.800,335511.300,301851.300,176026.000,171321.600,157677.300,175282.900,0.000
168148.900,193605.600,334704.900,301110.100,175890.000,170991.600,157427.500,175054.700,0.000
167733.100,193173.400,333786.900,300245.700,175613.400,170622.000,157078.000,174661.100,0.000
167314.500,192644.600,332730.500,299296.700,175002.500,170161.200,156590.800,174063.700,0.000
166941.200,192132.100,331746.200,298471.400,174337.100,169706.800,156146.100,173540.800,0.000
166620.800,191758.000,330964.900,297845.500,174004.600,169365.800,155884.700,173285.800,0.000
166308.100,191473.500,330280.000,297254.400,173945.200,169114.100,155701.300,173127.900,0.000
165968.900,191135.900,329532.500,296536.700,173752.500,168824.800,155422.100,172807.500,0.000
165631.600,190703.800,328655.400,295742.600,173231.800,168452.000,155022.500,172303.700,0.000
165338.500,190289.700,327839.400,295070.600,172658.400,168079.400,154657.000,171861.800,0.000
165075.100,189988.900,327222.600,294575.100,172393.700,167803.600,154445.900,171662.200,0.000
164829.500,189784.500,326721.900,294125.600,172408.800,167624.000,154331.700,171592.000,0.000
164557.200,189522.300,326103.100,293541.400,172287.500,167400.200,154119.600,171352.700,0.000
164286.000,189161.900,325344.900,292876.500,171837.000,167078.600,153778.000,170914.000,0.000
164050.900,188807.800,324642.400,292313.300,171321.900,166749.200,153457.300,170529.600,0.000
163853.700,188574.200,324147.400,291926.400,171110.800,166519.000,153296.700,170391.300,0.000
163661.000,188425.800,323763.100,291574.600,171168.400,166376.000,153227.400,170366.700,0.000
163439.200,188218.900,323263.300,291084.500,171098.400,166202.600,153062.000,170181.200,0.000
163213.200,187917.900,322619.800,290508.300,170702.300,165949.700,152765.500,169800.300,0.000
163016.700,187618.500,322019.700,290024.500,170235.500,165684.000,152491.300,169458.100,0.000
162861.400,187440.200,321625.800,289724.100,170078.500,165517.000,152375.500,169367.600,0.000
162711.100,187348.400,321338.100,289459.000,170189.300,165441.400,152351.100,169394.100,0.000
162529.000,187192.300,320929.000,289050.500,170165.100,165315.600,152228.900,169253.000,0.000
162339.900,186930.900,320364.800,288543.000,169806.200,165097.500,151966.900,168906.600,0.000
162183.800,186671.000,319844.900,288137.000,169374.700,164869.000,151720.800,168606.000,0.000
162066.500,186533.900,319533.900,287908.300,169252.800,164740.600,151638.100,168550.800,0.000
161949.500,186476.000,319325.600,287710.900,169396.900,164690.300,151642.500,168604.900,0.000
161809.300,186361.700,319000.300,287378.400,169412.600,164602.200,151553.200,168499.000,0.000
161656.800,186142.600,318515.800,286943.100,169093.100,164414.500,151319.300,168186.400,0.000
161524.700,185918.700,318063.800,286593.600,168696.000,164209.900,151100.600,167918.300,0.000
161433.400,185811.900,317813.500,286417.800,168599.800,164108.800,151049.500,167894.700,0.000
161338.600,185775.800,317689.300,286261.400,168755.900,164077.400,151072.900,167974.700,0.000
161224.800,185690.800,317466.000,285974.300,168798.500,164015.000,151006.800,167898.600,0.000
161093.300,185497.800,317060.000,285585.300,168507.500,163851.200,150797.800,167612.500,0.000
160992.800,185309.400,316685.600,285289.600,168144.000,163680.100,150609.700,167376.400,0.000
160916.800,185225.700,316496.000,285151.100,168064.500,163594.600,150569.100,167366.200,0.000
160856.400,185228.800,316414.500,285050.800,168254.500,163595.500,150619.000,167465.500,0.000
160764.600,185166.900,316206.800,284811.400,168312.600,163546.500,150568.800,167406.300,0.000
160655.300,184996.500,315835.900,284466.200,168043.000,163403.200,150370.800,167146.000,0.000
160572.800,184827.900,315497.700,284203.400,167698.400,163247.800,150201.100,166926.300,0.000
160520.800,184761.500,315343.300,284103.800,167634.200,163177.400,150185.200,166938.700,0.000
160484.700,184786.700,315302.200,284047.400,167844.400,163202.100,150261.900,167075.200,0.000
160410.800,184751.300,315137.700,283845.500,167934.900,163181.700,150240.000,167045.700,0.000
160308.600,184593.100,314796.100,283526.500,167682.000,163048.300,150066.400,166799.200,0.000
160248.100,184445.200,314495.600,283303.500,167360.300,162914.700,149919.200,166601.200,0.000
160213.600,184396.400,314372.500,283231.800,167314.500,162860.700,149910.800,166628.500,0.000
160186.700,184433.900,314354.900,283199.100,167541.100,162893.900,149991.500,166777.400,0.000
160118.700,184410.600,314210.200,283016.200,167643.700,162886.900,149979.900,166749.100,0.000
160033.200,184276.500,313896.400,282717.000,167406.100,162775.400,149819.200,166515.200,0.000
159974.900,184139.800,313609.500,282507.400,167085.300,162650.800,149669.900,166319.400,0.000
159959.300,184116.100,313518.900,282469.000,167055.000,162619.600,149665.700,166358.300,0.000
159941.900,184163.600,313522.800,282461.300,167284.800,162657.700,149754.900,166507.400,0.000
159888.700,184153.600,313405.000,282307.800,167400.400,162657.000,149752.300,166501.000,0.000
159821.100,184037.300,313119.300,282043.500,167183.300,162559.600,149610.300,166280.500,0.000
159776.900,183910.100,312859.000,281863.900,166874.900,162447.600,149474.000,166101.000,0.000
159759.600,183876.500,312773.000,281839.900,166837.400,162405.800,149481.000,166141.100,0.000
159742.700,183927.000,312786.100,281841.900,167068.300,162447.000,149574.600,166295.100,0.000
159699.000,183928.300,312686.400,281704.900,167191.200,162456.000,149578.200,166300.600,0.000
159645.400,183824.600,312422.200,281462.600,166988.800,162373.200,149444.900,166098.800,0.000
159600.400,183697.900,312163.100,281287.500,166684.200,162261.400,149314.400,165921.400,0.000
159594.700,183680.800,312098.100,281275.800,166659.800,162240.300,149331.700,165973.600,0.000
159587.300,183744.200,312135.500,281295.700,166905.200,162295.100,149439.700,166142.800,0.000
159552.500,183760.300,312060.800,281180.100,167047.000,162317.600,149456.300,166162.600,0.000
159501.200,183664.100,311813.700,280951.400,166852.500,162239.300,149326.700,165969.500,0.000
159463.400,183541.900,311565.700,280785.700,166544.100,162128.300,149188.300,165784.700,0.000
159465.700,183539.600,311517.000,280795.700,166526.200,162117.700,149215.000,165843.700,0.000
159466.900,183616.800,311572.300,280832.300,166776.300,162185.300,149332.700,166018.000,0.000
159438.700,183632.800,311514.300,280723.800,166915.100,162208.500,149349.700,166033.200,0.000
159384.000,183526.400,311278.600,280498.000,166715.500,162123.700,149219.100,165842.500,0.000
159360.400,183413.300,311065.900,280352.500,166422.100,162020.200,149099.800,165672.800,0.000
159366.000,183406.600,311031.800,280368.900,166406.200,162010.200,149127.900,165726.200,0.000
159370.300,183483.400,311100.900,280409.200,166661.100,162076.800,149244.300,165906.200,0.000
159346.300,183513.000,311064.200,280315.400,166819.600,162112.700,149275.600,165937.800,0.000
159294.700,183423.400,310847.700,280101.300,166640.900,162043.000,149152.800,165750.400,0.000
159264.700,183316.200,310637.900,279957.300,166348.900,161940.300,149024.500,165577.800,0.000
159275.000,183319.100,310616.000,279982.700,166331.500,161932.500,149057.600,165641.500,0.000
159282.700,183401.500,310697.200,280033.500,166589.900,162005.600,149179.000,165826.600,0.000
159259.100,183432.700,310664.100,279949.100,166753.700,162047.000,149213.400,165866.400,0.000
159219.800,183350.400,310458.600,279749.100,166575.800,161983.900,149099.400,165683.100,0.000
159193.200,183239.400,310254.200,279611.600,166277.000,161880.400,148971.000,165511.000,0.000
159200.300,183234.800,310230.400,279637.900,166250.900,161863.000,148991.200,165571.500,0.000
159218.000,183322.500,310322.100,279707.200,166512.900,161943.000,149117.400,165765.000,0.000
159190.700,183348.600,310287.000,279624.900,166666.300,161975.800,149143.600,165795.100,0.000
159146.900,183263.100,310079.900,279425.500,166490.100,161909.300,149024.800,165610.600,0.000
159129.700,183163.700,309882.700,279295.200,166202.500,161817.300,148909.500,165449.400,0.000
159142.900,183167.400,309864.600,279322.400,166180.000,161807.400,148935.300,165513.700,0.000
159158.000,183258.200,309958.400,279390.900,166442.800,161889.100,149060.400,165698.200,0.000
159142.500,183298.300,309944.100,279329.600,166614.600,161932.700,149101.700,165747.900,0.000
159097.100,183216.900,309742.600,279131.400,166438.500,161867.100,148985.900,165565.300,0.000
159078.400,183115.500,309551.200,279003.600,166148.800,161775.000,148867.400,165401.000,0.000
159096.400,183119.600,309543.400,279045.200,166131.900,161766.200,148896.100,165464.900,0.000
159110.300,183206.300,309637.900,279116.400,166393.000,161842.400,149019.600,165651.400,0.000
159087.000,183243.800,309621.100,279051.800,166560.600,161883.300,149053.700,165693.100,0.000
159045.800,183169.100,309431.000,278865.500,166397.700,161826.300,148933.500,165520.600,0.000
159023.600,183066.600,309241.000,278741.100,166110.000,161733.600,148797.800,165357.100,0.000
159037.900,183068.500,309228.700,278777.100,166086.100,161723.500,148822.000,165416.100,0.000
159064.900,183166.200,309335.900,278859.800,166356.300,161808.400,148963.900,165615.400,0.000
159041.300,183201.500,309322.100,278794.300,166525.900,161850.200,149004.400,165657.800,0.000
159005.900,183128.400,309136.500,278615.300,166365.900,161797.000,148898.300,165481.400,0.000
158987.900,183032.900,308951.000,278501.200,166083.600,161703.800,148782.300,165317.400,0.000
158999.600,183041.000,308941.400,278547.800,166062.900,161694.000,148815.100,165385.300,0.000
159013.700,183128.800,309038.400,278622.600,166321.100,161767.600,148936.800,165576.500,0.000
159000.800,183174.500,309035.700,278567.400,166498.700,161825.800,148984.800,165625.400,0.000
158971.100,183108.300,308858.500,278392.100,166342.200,161777.300,148884.900,165463.200,0.000
158962.800,183015.600,308679.800,278278.200,166058.200,161694.100,148776.100,165302.600,0.000
158977.400,183018.200,308672.300,278319.100,166033.000,161687.400,148804.700,165366.800,0.000
158994.100,183102.500,308773.200,278397.200,166288.700,161757.600,148924.200,165553.700,0.000
158985.500,183147.000,308774.700,278347.400,166469.300,161804.100,148967.600,165606.400,0.000
158960.800,183084.300,308611.500,278184.200,166324.800,161758.300,148866.500,165446.100,0.000
158945.500,182988.000,308434.900,278069.900,166039.200,161665.700,148748.900,165279.900,0.000
158964.600,182991.300,308434.300,278115.100,166012.300,161652.800,148777.500,165343.500,0.000
158985.400,183082.900,308541.500,278198.000,166273.800,161730.000,148900.900,165534.700,0.000
158974.100,183127.700,308543.100,278149.100,166457.800,161782.000,148942.700,165582.100,0.000
158942.200,183056.700,308369.400,277979.200,166309.200,161737.500,148841.100,165420.400,0.000
158925.700,182953.800,308184.800,277860.500,166017.000,161641.300,148721.400,165254.100,0.000
158949.900,182960.200,308185.700,277910.600,165992.100,161633.200,148751.200,165317.400,0.000
158972.200,183053.300,308298.000,277996.700,166252.800,161714.500,148880.000,165513.000,0.000
158956.000,183096.100,308300.800,277947.900,166428.600,161761.000,148919.900,165565.700,0.000
158925.400,183028.900,308134.600,277776.800,166279.500,161712.600,148816.400,165405.700,0.000
158912.500,182937.200,307962.000,277660.000,165992.600,161626.500,148703.800,165235.300,0.000
158935.800,182946.800,307968.200,277715.300,165967.400,161621.100,148739.300,165296.800,0.000
158953.000,183031.100,308076.600,277805.000,166224.200,161690.400,148858.700,165488.000,0.000
158943.100,183074.000,308088.300,277762.400,166410.400,161738.400,148904.700,165544.700,0.000
158922.100,183014.000,307931.400,277601.200,166272.500,161697.500,148813.800,165390.300,0.000
158908.600,182920.300,307754.800,277486.500,165986.600,161608.800,148698.300,165223.800,0.000
158935.500,182934.500,307761.100,277543.100,165963.400,161609.100,148732.700,165286.500,0.000
158951.100,183022.600,307871.100,277630.700,166218.700,161682.500,148855.400,165477.400,0.000
158936.300,183068.100,307878.200,277586.600,166400.300,161730.900,148899.100,165533.800,0.000
158905.600,183007.900,307714.200,277417.300,166255.100,161690.900,148801.400,165372.600,0.000
158891.900,182912.500,307538.100,277299.300,165968.800,161610.600,148686.800,165203.500,0.000
158913.900,182916.900,307543.100,277352.200,165937.500,161605.600,148712.800,165261.300,0.000
158940.800,183012.800,307668.000,277456.800,166199.400,161681.900,148839.800,165459.500,0.000
158936.400,183060.000,307687.000,277424.800,166387.100,161731.200,148887.500,165520.800,0.000
158905.500,182988.700,307521.500,277262.100,166237.900,161675.900,148784.000,165364.900,0.000
158893.400,182892.000,307344.500,277149.400,165951.400,161585.900,148665.600,165203.900,0.000
158914.600,182897.900,307344.400,277201.800,165918.600,161580.200,148695.800,165250.300,0.000
158935.100,182993.100,307462.000,277298.500,166178.800,161662.600,148829.700,165447.100,0.000
158923.400,183042.500,307475.600,277266.700,166369.900,161718.100,148883.000,165511.400,0.000
158900.000,182990.100,307323.400,277111.500,166244.800,161687.000,148797.300,165363.500,0.000
158882.800,182891.800,307148.800,276992.600,165961.200,161596.200,148682.600,165197.500,0.000
158907.000,182894.900,307155.700,277048.000,165928.400,161590.100,148711.200,165255.800,0.000
158931.900,182986.800,307279.900,277143.400,166184.200,161668.700,148836.500,165453.200,0.000
158923.900,183036.500,307302.100,277104.800,166372.300,161720.200,148884.200,165513.300,0.000
158897.100,182974.700,307149.000,276946.300,166231.500,161675.000,148788.000,165356.700,0.000
158887.700,182875.000,306978.100,276839.200,165940.600,161584.100,148667.500,165185.600,0.000
158907.100,182876.000,306979.800,276891.900,165899.000,161573.700,148687.900,165234.700,0.000
158926.400,182965.100,307101.500,276991.700,166153.000,161647.600,148813.500,165432.700,0.000
158916.300,183011.500,307122.700,276962.500,166336.600,161692.800,148859.400,165490.800,0.000
158889.300,182952.300,306972.100,276805.300,166199.100,161648.200,148765.600,165333.300,0.000
158875.400,182859.500,306804.400,276696.100,165919.400,161563.000,148651.700,165169.700,0.000
158894.600,182861.500,306805.900,276749.100,165885.600,161554.000,148676.000,165224.200,0.000
158921.800,182959.900,306934.300,276857.100,166150.300,161634.100,148809.600,165422.900,0.000
158912.600,183012.200,306959.400,276830.800,166345.800,161689.000,148863.400,165488.600,0.000
158874.400,182943.100,306799.900,276668.700,166209.000,161641.700,148766.700,165335.100,0.000
158858.400,182846.900,306627.300,276560.600,165929.500,161558.800,148656.200,165176.100,0.000
158878.300,182848.400,306628.700,276613.500,165889.800,161552.200,148681.000,165229.800,0.000
158902.500,182939.900,306753.000,276713.800,166142.200,161628.600,148802.400,165416.400,0.000
158895.100,182995.700,306783.300,276686.300,166337.600,161684.800,148858.400,165483.600,0.000
158859.600,182929.000,306625.900,276527.900,166201.200,161640.600,148767.300,165333.500,0.000
158847.900,182836.500,306453.900,276418.600,165915.200,161552.400,148651.000,165168.700,0.000
158871.300,182842.000,306457.700,276475.300,165873.600,161542.400,148669.900,165217.600,0.000
158893.700,182933.900,306579.500,276580.700,166126.800,161620.200,148791.100,165409.900,0.000
158887.700,182988.300,306606.000,276557.500,166321.800,161675.700,148849.300,165480.800,0.000
158864.500,182938.400,306457.400,276404.200,166198.000,161644.800,148764.100,165325.800,0.000
158851.000,182843.400,306283.800,276294.300,165913.800,161551.400,148645.800,165163.900,0.000
158875.000,182846.000,306285.700,276347.800,165870.100,161543.700,148664.400,165207.900,0.000
158898.300,182936.400,306408.500,276452.700,166123.500,161615.500,148790.000,165402.600,0.000
158898.800,182996.300,306444.000,276433.100,166326.700,161673.900,148846.400,165477.000,0.000
158875.900,182945.500,306301.100,276279.100,166202.200,161634.500,148756.100,165323.700,0.000
158853.300,182845.800,306127.300,276159.600,165914.400,161539.000,148634.500,165150.000,0.000
158881.000,182851.400,306135.700,276221.100,165874.100,161527.800,148656.900,165197.400,0.000
158909.700,182942.200,306263.500,276332.200,166125.800,161601.600,148780.500,165392.300,0.000
158903.300,182997.900,306298.700,276312.500,166324.900,161657.200,148835.900,165466.000,0.000
158870.400,182940.300,306149.100,276155.600,166194.200,161613.300,148740.900,165310.900,0.000
158862.600,182852.400,305986.600,276053.400,165917.800,161532.800,148628.600,165145.300,0.000
158880.000,182849.000,305986.700,276107.200,165868.700,161519.200,148642.400,165192.900,0.000
158899.100,182936.000,306109.900,276214.100,166121.400,161596.200,148769.500,165390.300,0.000
158893.500,182996.300,306146.400,276196.600,166327.900,161663.000,148834.900,165465.600,0.000
158864.300,182943.300,306001.000,276047.200,166208.100,161624.800,148753.000,165325.800,0.000
158850.500,182849.900,305829.000,275936.400,165925.300,161538.500,148635.400,165156.700,0.000
158872.500,182847.800,305827.000,275987.600,165874.500,161525.200,148654.000,165194.400,0.000
158899.200,182938.400,305953.700,276095.300,166126.800,161605.600,148784.600,165391.100,0.000
158897.300,182995.600,305992.200,276075.900,166328.000,161664.200,148843.000,165465.100,0.000
158875.200,182943.800,305853.300,275928.600,166209.000,161621.300,148752.000,165316.700,0.000
158859.500,182849.000,305681.800,275815.700,165923.100,161534.400,148632.800,165142.100,0.000
158875.800,182847.900,305676.900,275867.300,165865.400,161525.000,148653.800,165186.500,0.000
158892.700,182933.300,305798.900,275978.200,166108.100,161596.500,148778.100,165384.900,0.000
158880.800,182986.200,305835.000,275960.700,166311.100,161653.500,148832.700,165457.500,0.000
158854.200,182933.900,305697.600,275815.500,166199.100,161619.000,148747.900,165315.800,0.000
158845.700,182843.700,305534.100,275706.300,165920.200,161535.200,148632.700,165145.300,0.000
158856.500,182829.100,305520.800,275738.800,165852.500,161509.000,148637.100,165170.500,0.000
158877.500,182910.900,305638.200,275845.400,166092.000,161575.300,148757.500,165362.500,0.000
158880.100,182972.100,305683.600,275838.000,166302.500,161636.800,148824.200,165449.000,0.000
158853.600,182917.600,305543.500,275688.600,166188.500,161597.600,148735.300,165304.500,0.000
158845.200,182829.500,305381.500,275585.900,165908.800,161519.700,148622.700,165130.800,0.000
158866.300,182829.000,305385.000,275640.300,165846.300,161501.700,148634.400,165169.400,0.000
158896.100,182930.500,305524.500,275761.000,166097.400,161584.900,148767.000,165367.600,0.000
158895.500,182995.300,305575.300,275756.300,166313.100,161648.200,148834.500,165452.300,0.000
158872.700,182946.000,305445.000,275620.100,166208.200,161617.200,148754.100,165313.700,0.000
158854.600,182845.400,305271.100,275503.300,165917.800,161529.200,148631.700,165137.200,0.000
158877.200,182839.800,305265.200,275552.800,165853.000,161513.400,148643.100,165170.900,0.000
158903.500,182933.300,305394.000,275667.800,166100.700,161593.600,148773.000,165367.700,0.000
158894.600,182992.800,305435.800,275659.900,166312.700,161656.900,148840.700,165456.100,0.000
158865.800,182943.100,305295.300,275515.500,166208.300,161626.500,148761.400,165320.100,0.000
158843.200,182843.300,305097.800,275395.400,165917.400,161539.500,148637.300,165144.400,0.000
158859.800,182835.000,305053.800,275435.500,165842.600,161523.500,148645.900,165169.900,0.000
158888.600,182926.400,305159.300,275547.500,166087.200,161602.000,148779.000,165365.100,0.000
158890.800,182998.300,305198.900,275551.300,166312.200,161674.300,148856.100,165464.000,0.000
158855.700,182945.300,305045.800,275403.200,166204.400,161634.800,148772.900,165322.400,0.000
158842.000,182847.700,304862.700,275286.700,165913.300,161548.000,148652.000,165141.800,0.000
158855.500,182830.400,304835.300,275331.900,165832.600,161518.800,148654.000,165169.000,0.000
158881.400,182918.800,304954.000,275451.900,166074.000,161589.100,148777.100,165361.400,0.000
158880.200,182982.000,305004.200,275456.300,166296.400,161656.100,148845.100,165452.600,0.000
158848.800,182927.200,304863.100,275308.800,166192.000,161621.500,148757.700,165313.600,0.000
158840.200,182839.800,304697.200,275200.700,165912.800,161538.600,148641.600,165139.900,0.000
158858.400,182832.200,304691.000,275247.100,165838.600,161518.300,148648.900,165164.700,0.000
158881.000,182921.900,304817.000,275360.600,166078.800,161592.200,148768.900,165356.300,0.000
158877.200,182989.600,304868.900,275363.600,166300.600,161656.700,148837.800,165448.700,0.000
158850.700,182941.500,304735.800,275224.600,166200.300,161625.100,148762.000,165306.700,0.000
158842.600,182851.000,304563.800,275113.300,165915.900,161542.200,148642.400,165131.700,0.000
158856.500,182838.000,304544.800,275157.500,165839.900,161521.700,148648.100,165157.400,0.000
158883.000,182929.600,304672.200,275277.200,166083.600,161601.100,148774.000,165353.000,0.000
158881.000,182990.500,304719.700,275276.700,166305.200,161663.800,148840.800,165445.200,0.000
158851.200,182938.600,304582.700,275133.500,166204.100,161623.600,148754.800,165307.400,0.000
158837.800,182853.400,304415.400,275027.200,165922.700,161548.800,148643.100,165135.400,0.000
158849.100,182839.800,304395.400,275066.800,165839.000,161518.000,148645.900,165159.600,0.000
158879.800,182935.800,304529.500,275186.600,166082.700,161596.500,148777.800,165360.100,0.000
158880.500,183007.100,304590.800,275192.500,166313.500,161669.800,148854.800,165461.400,0.000
158845.600,182954.700,304458.800,275044.400,166216.100,161633.500,148773.100,165321.900,0.000
158830.100,182855.100,304285.800,274930.800,165929.300,161546.600,148650.800,165139.700,0.000
158849.900,182839.800,304275.800,274979.000,165847.200,161526.600,148658.200,165164.600,0.000
158878.600,182929.300,304411.800,275098.900,166083.000,161599.400,148785.800,165357.200,0.000
158868.000,182987.200,304460.500,275098.000,166301.200,161651.300,148848.700,165452.000,0.000
158834.500,182933.800,304324.800,274951.700,166202.100,161611.000,148759.600,165309.000,0.000
158826.500,182846.600,304155.800,274841.100,165923.200,161536.000,148650.800,165135.700,0.000
158839.000,182830.000,304133.800,274877.400,165831.600,161507.500,148648.900,165154.800,0.000
158857.300,182914.900,304260.300,274990.900,166064.800,161573.000,148767.300,165345.600,0.000
158857.800,182989.900,304335.800,275000.800,166307.500,161646.900,148847.300,165450.300,0.000
158836.300,182953.200,304224.800,274870.300,166232.300,161629.200,148779.400,165324.800,0.000
158814.800,182849.600,304051.300,274750.200,165941.000,161537.000,148652.200,165135.100,0.000
158829.400,182827.700,304033.500,274793.700,165849.300,161510.000,148650.100,165148.900,0.000
158858.300,182919.600,304163.900,274919.200,166087.900,161589.100,148776.500,165346.600,0.000
158858.000,182990.900,304223.400,274928.500,166321.300,161658.000,148852.700,165450.400,0.000
158826.300,182940.000,304091.600,274787.300,166230.100,161625.400,148772.100,165314.900,0.000
158811.300,182841.000,303915.900,274673.000,165941.300,161543.200,148648.900,165132.500,0.000
158824.900,182825.500,303893.700,274712.400,165850.700,161521.200,148649.600,165153.900,0.000
158856.100,182918.000,304024.700,274837.200,166085.200,161597.900,148776.200,165346.200,0.000
158851.500,182985.000,304089.100,274846.600,166315.200,161662.900,148851.500,165446.600,0.000
158825.200,182945.700,303979.800,274713.200,166232.700,161633.800,148780.700,165321.600,0.000
158805.400,182845.700,303825.800,274590.900,165938.000,161542.900,148651.000,165135.400,0.000
158821.700,182831.300,303862.200,274628.800,165842.700,161520.800,148644.800,165147.500,0.000
158849.900,182919.400,304055.900,274750.900,166075.000,161595.900,148769.500,165343.100,0.000
158847.200,182986.700,304165.600,274764.300,166310.000,161665.300,148854.000,165452.300,0.000
158813.400,182934.500,304075.000,274624.700,166226.800,161630.700,148776.700,165324.300,0.000
158803.000,182844.100,303938.800,274512.400,165947.400,161550.900,148658.400,165143.400,0.000
158820.300,182828.000,303945.400,274551.800,165847.000,161521.700,148653.100,165151.600,0.000
158849.500,182914.400,304097.800,274674.900,166072.500,161590.400,148775.800,165340.400,0.000
158851.900,182984.400,304186.300,274689.200,166306.200,161654.500,148851.700,165443.900,0.000
158826.000,182941.300,304088.900,274557.800,166226.900,161625.200,148778.400,165320.100,0.000
158809.400,182847.500,303933.900,274445.100,165943.600,161544.100,148660.900,165141.000,0.000
158824.200,182835.900,303925.600,274484.700,165847.600,161520.200,148659.300,165153.700,0.000
158848.300,182916.800,304059.100,274602.100,166069.500,161591.100,148777.600,165346.200,0.000
158845.100,182977.400,304129.100,274614.200,166300.200,161653.100,148850.000,165447.900,0.000
158819.300,182938.700,304022.600,274480.500,166226.700,161624.900,148781.700,165319.900,0.000
158808.200,182848.200,303865.800,274363.100,165949.500,161544.000,148659.200,165139.900,0.000
158828.100,182832.400,303855.300,274405.300,165852.600,161517.600,148653.300,165149.200,0.000
158853.000,182918.500,303994.400,274529.900,166079.300,161587.100,148774.900,165343.900,0.000
158851.300,182990.900,304074.400,274544.100,166316.300,161658.400,148853.600,165448.100,0.000
158826.400,182952.500,303967.400,274414.000,166245.600,161633.600,148782.000,165325.800,0.000
158817.100,182859.500,303804.900,274303.000,165965.800,161554.600,148668.100,165152.400,0.000
158837.600,182835.800,303783.300,274336.200,165858.700,161525.300,148663.100,165159.500,0.000
158856.000,182911.000,303904.300,274444.400,166072.000,161583.500,148777.100,165334.900,0.000
158857.100,182984.700,303979.500,274461.300,166310.000,161652.800,148857.700,165439.400,0.000
158832.700,182952.300,303875.600,274335.300,166243.200,161633.300,148794.300,165325.900,0.000
158816.600,182860.500,303715.600,274220.300,165963.500,161556.000,148677.400,165143.700,0.000
158831.900,182841.600,303704.700,274259.000,165860.100,161536.500,148670.900,165155.200,0.000
158852.900,182917.600,303833.800,274377.600,166073.800,161594.500,148787.100,165338.900,0.000
158855.900,182993.700,303912.100,274399.300,166315.500,161668.000,148871.200,165450.000,0.000
158834.100,182956.200,303807.200,274270.800,166250.000,161643.400,148798.800,165330.400,0.000
158819.500,182857.500,303643.500,274152.800,165966.100,161554.600,148674.200,165143.300,0.000
158837.600,182837.500,303625.800,274189.000,165860.100,161526.600,148666.700,165147.300,0.000
158864.900,182923.800,303756.200,274311.400,166083.100,161594.900,148786.900,165339.100,0.000
158856.500,182992.800,303828.500,274322.400,166316.600,161664.900,148868.300,165447.600,0.000
158835.300,182960.800,303732.200,274201.800,166251.800,161646.800,148801.900,165331.700,0.000
158823.200,182864.500,303573.300,274087.200,165969.100,161559.300,148675.700,165149.200,0.000
158827.100,182835.600,303549.000,274113.100,165850.500,161519.000,148659.500,165146.300,0.000
158851.900,182912.600,303684.600,274233.500,166065.300,161584.000,148774.900,165327.900,0.000
158863.200,182992.100,303778.200,274262.900,166315.900,161662.100,148863.000,165445.100,0.000
158837.200,182956.500,303676.900,274132.900,166254.400,161639.400,148794.800,165329.300,0.000
158809.900,182852.300,303498.200,274006.200,165964.300,161546.200,148660.800,165136.900,0.000
158820.900,182828.600,303467.500,274038.800,165849.300,161512.200,148646.200,165133.700,0.000
158849.900,182913.200,303593.400,274168.600,166065.100,161579.800,148765.000,165327.700,0.000
158856.500,182987.400,303668.800,274191.900,166308.900,161652.000,148850.600,165438.400,0.000
158839.800,182958.800,303570.100,274071.600,166256.000,161635.700,148791.300,165330.500,0.000
158823.000,182863.200,303400.400,273951.800,165978.300,161553.900,148668.000,165146.000,0.000
158835.200,182836.400,303359.200,273981.300,165863.300,161521.700,148659.300,165145.300,0.000
158855.000,182911.000,303460.200,274093.100,166069.100,161582.000,148771.300,165325.800,0.000
158845.000,182983.000,303508.300,274106.800,166303.500,161643.400,148847.300,165431.400,0.000
158821.700,182974.300,303385.600,273988.000,166249.600,161627.300,148787.300,165320.700,0.000
158800.000,182890.800,303189.100,273869.000,165965.800,161540.100,148663.100,165133.200,0.000
158820.100,182885.700,303151.500,273906.200,165855.900,161519.100,148659.400,165142.400,0.000
158849.200,182983.000,303275.400,274037.100,166072.000,161589.100,148785.800,165337.200,0.000
158852.200,183062.900,303352.000,274060.700,166312.800,161657.600,148867.400,165450.100,0.000
158826.400,183032.900,303241.900,273930.400,166251.000,161634.800,148791.900,165322.500,0.000
158815.400,182946.600,303060.400,273812.700,165972.500,161556.300,148667.100,165137.200,0.000
158821.400,182917.000,303012.800,273835.500,165851.700,161516.300,148649.500,165134.500,0.000
158847.500,182999.800,303129.600,273961.000,166065.600,161582.900,148771.800,165322.900,0.000
158851.700,183073.900,303200.300,273991.600,166308.900,161654.000,148857.200,165441.200,0.000
158831.400,183044.200,303094.300,273874.200,166257.000,161637.800,148795.600,165330.800,0.000
158814.900,182948.400,302916.300,273753.400,165974.300,161556.000,148669.900,165139.500,0.000
158827.800,182924.200,302879.800,273783.500,165856.300,161524.600,148656.200,165135.800,0.000
158855.500,183009.400,303000.800,273904.300,166072.200,161593.800,148778.500,165323.000,0.000
158863.300,183091.700,303084.400,273940.000,166324.500,161673.300,148873.500,165449.300,0.000
158834.500,183055.500,302980.300,273813.400,166267.300,161647.500,148806.800,165337.300,0.000
158820.000,182965.100,302815.400,273690.400,165991.800,161569.500,148686.400,165154.200,0.000
158826.000,182933.000,302783.300,273712.600,165863.800,161531.100,148668.400,165140.800,0.000
158853.400,183014.400,302912.700,273839.500,166073.800,161597.200,148785.700,165329.000,0.000
158857.500,183091.600,302996.200,273870.800,166321.500,161671.800,148871.200,165449.900,0.000
158825.800,183053.000,302886.600,273742.700,166261.800,161645.400,148802.900,165335.100,0.000
158818.800,182961.000,302720.900,273631.400,165986.700,161564.400,148680.600,165148.600,0.000
158832.600,182935.500,302685.800,273661.900,165864.700,161531.300,148662.200,165139.300,0.000
158845.500,183006.300,302803.800,273781.100,166064.900,161590.100,148771.200,165319.700,0.000
158847.500,183082.200,302889.200,273813.200,166313.300,161665.800,148860.700,165442.300,0.000
158824.300,183056.100,302791.400,273691.700,166267.600,161652.700,148805.700,165334.400,0.000
158798.700,182959.100,302613.200,273559.900,165987.600,161561.800,148677.400,165140.800,0.000
158818.600,182940.400,302585.300,273594.600,165870.300,161536.500,148668.300,165138.900,0.000
158844.000,183014.900,302705.300,273717.100,166069.400,161590.500,148776.200,165318.200,0.000
158848.800,183086.900,302788.600,273750.700,166318.400,161662.100,148862.500,165441.900,0.000
158828.800,183056.900,302693.800,273632.300,166273.100,161649.900,148810.500,165335.700,0.000
158814.400,182965.100,302526.100,273515.200,165996.900,161566.400,148687.900,165152.000,0.000
158839.500,182947.500,302500.800,273554.200,165879.500,161539.500,148674.200,165148.100,0.000
158861.300,183019.500,302625.800,273677.500,166078.100,161593.600,148784.500,165331.800,0.000
158848.500,183083.300,302701.800,273694.100,166318.800,161656.000,148860.700,165438.800,0.000
158825.300,183055.800,302609.700,273576.400,166280.100,161643.700,148801.700,165335.400,0.000
158806.100,182959.900,302433.300,273452.500,165998.700,161556.100,148670.200,165142.100,0.000
158816.300,182926.700,302390.900,273473.500,165863.500,161515.200,148644.700,165126.400,0.000
158844.400,183003.500,302515.100,273598.700,166059.700,161579.100,148761.200,165310.000,0.000
158855.900,183084.100,302606.800,273637.000,166310.900,161657.300,148852.300,165435.500,0.000
158834.500,183057.400,302512.000,273517.300,166268.700,161642.800,148796.700,165332.500,0.000
158815.900,182963.000,302341.800,273389.400,165987.700,161561.200,148670.000,165142.700,0.000
158834.600,182939.800,302318.600,273421.200,165860.900,161529.400,148655.300,165135.400,0.000
158856.200,183014.600,302445.100,273542.600,166059.000,161584.700,148770.800,165315.400,0.000
158855.500,183088.000,302535.000,273576.300,166307.400,161655.300,148860.700,165438.400,0.000
158827.800,183056.200,302444.000,273455.500,166266.600,161639.200,148802.300,165336.800,0.000
158812.400,182966.300,302267.200,273329.900,165992.200,161561.000,148679.900,165148.600,0.000
158823.000,182935.300,302216.100,273352.800,165855.400,161523.600,148656.500,165125.100,0.000
158856.600,183017.200,302342.800,273491.600,166062.300,161592.800,148778.200,165315.700,0.000
158867.500,183100.900,302440.900,273533.200,166323.500,161674.600,148878.600,165450.300,0.000
158845.300,183074.800,302350.500,273417.600,166287.600,161664.800,148828.100,165355.400,0.000
158824.700,182978.000,302181.600,273293.700,166008.200,161579.800,148698.600,165162.800,0.000
158825.700,182937.700,302139.400,273304.900,165863.500,161528.500,148664.200,165131.700,0.000
158862.000,183022.800,302283.700,273433.500,166068.200,161600.000,148771.100,165313.000,0.000
158865.100,183102.200,302409.600,273470.800,166325.400,161676.200,148854.400,165445.500,0.000
158836.300,183073.100,302345.900,273354.800,166290.000,161660.500,148803.300,165349.300,0.000
158814.700,182972.400,302175.000,273226.700,166006.900,161569.700,148673.000,165149.800,0.000
158836.300,182945.700,302161.800,273254.000,165869.700,161534.800,148652.000,165129.500,0.000
158870.800,183023.900,302325.100,273386.800,166062.600,161596.800,148760.500,165314.300,0.000
158881.100,183105.900,302463.300,273437.000,166321.000,161669.500,148857.300,165456.200,0.000
158848.800,183071.500,302408.800,273316.800,166284.700,161652.600,148802.200,165347.400,0.000
158825.800,182970.900,302260.300,273185.200,166002.200,161563.900,148669.400,165154.500,0.000
158837.000,182938.800,302240.800,273201.400,165861.000,161523.200,148632.300,165132.700,0.000
158861.600,183013.800,302373.200,273322.600,166053.500,161586.400,148742.600,165313.400,0.000
158867.600,183096.300,302477.500,273365.900,166314.100,161667.700,148846.600,165448.500,0.000
158844.800,183077.600,302414.800,273254.500,166292.600,161663.100,148806.300,165356.700,0.000
158827.000,182986.800,302267.300,273126.800,166016.300,161583.100,148677.200,165166.500,0.000
158837.300,182950.400,302230.400,273142.300,165861.000,161535.700,148635.700,165135.500,0.000
158867.100,183026.500,302364.000,273267.200,166046.700,161593.500,148749.400,165308.100,0.000
158886.000,183118.700,302496.000,273324.600,166319.400,161680.500,148857.700,165456.700,0.000
158857.700,183091.000,302429.000,273210.200,166294.300,161670.400,148801.200,165359.700,0.000
158836.300,182992.600,302273.200,273078.500,166017.900,161578.400,148679.000,165164.600,0.000
158851.700,182960.500,302246.000,273098.000,165874.400,161537.100,148658.200,165132.800,0.000
158877.100,183030.100,302375.200,273221.800,166056.400,161591.900,148769.500,165309.400,0.000
158882.100,183104.300,302474.400,273262.900,166302.700,161659.500,148861.800,165448.000,0.000
158854.400,183076.400,302391.800,273147.700,166270.000,161645.800,148810.100,165342.400,0.000
158830.300,182977.600,302226.000,273014.400,165991.000,161559.700,148680.800,165145.600,0.000
158839.500,182940.700,302188.400,273022.900,165838.400,161513.700,148645.600,165110.000,0.000
158877.500,183024.200,302326.900,273155.900,166032.000,161581.000,148763.100,165292.000,0.000
158890.400,183111.200,302431.500,273207.800,166300.500,161663.900,148865.100,165432.100,0.000
158864.600,183089.100,302350.400,273097.600,166281.600,161652.700,148817.600,165343.200,0.000
158840.800,182993.300,302179.000,272969.500,166007.900,161570.300,148692.000,165153.400,0.000
158853.500,182956.700,302138.000,272987.200,165855.100,161527.300,148657.900,165125.000,0.000
158872.500,183020.200,302259.300,273098.300,166024.200,161572.600,148755.000,165294.200,0.000
158872.100,183094.400,302361.500,273140.800,166278.600,161645.900,148849.800,165431.300,0.000
158843.700,183069.000,302288.600,273029.300,166257.700,161637.800,148802.400,165340.800,0.000
158818.000,182970.400,302122.000,272893.700,165976.500,161549.100,148667.200,165145.300,0.000
158829.400,182937.000,302087.800,272908.700,165824.800,161509.600,148637.700,165111.400,0.000
158860.000,183011.400,302220.100,273036.700,166004.600,161573.500,148750.200,165285.300,0.000
158873.400,183098.100,302326.800,273091.800,166269.100,161653.900,148854.000,165428.200,0.000
158846.200,183073.400,302233.200,272975.700,166249.700,161639.000,148800.000,165331.900,0.000
158824.300,182975.100,302063.100,272840.800,165972.700,161553.700,148669.100,165133.700,0.000
158851.900,182954.700,302040.800,272870.800,165830.100,161527.000,148650.200,165109.600,0.000
158880.500,183026.600,302170.500,272998.300,166009.300,161584.200,148757.200,165277.500,0.000
158882.700,183095.800,302273.000,273046.200,166267.200,161654.200,148849.300,165411.300,0.000
158853.800,183066.300,302200.200,272937.300,166253.300,161642.400,148805.700,165328.200,0.000
158827.300,182969.300,302036.300,272804.200,165980.900,161560.500,148682.600,165135.000,0.000
158833.000,182935.600,301993.200,272813.700,165823.800,161515.000,148651.100,165103.800,0.000
158854.600,183008.400,302117.900,272936.500,166000.300,161567.500,148759.300,165276.800,0.000
158860.200,183091.500,302228.400,272992.200,166265.100,161645.700,148861.600,165422.900,0.000
158841.400,183075.900,302163.400,272895.100,166261.700,161645.200,148822.400,165344.400,0.000
158817.100,182976.200,301993.200,272757.700,165982.900,161559.700,148688.700,165141.800,0.000
158825.000,182935.800,301948.900,272763.700,165817.000,161514.100,148649.600,165102.800,0.000
158860.700,183014.500,302085.200,272901.800,166000.900,161577.800,148763.700,165282.800,0.000
158867.300,183097.800,302197.800,272953.400,166267.600,161654.800,148862.900,165422.400,0.000
158838.800,183075.400,302128.300,272844.600,166257.400,161642.200,148816.700,165338.500,0.000
158816.600,182979.300,301964.300,272711.300,165987.700,161559.600,148686.000,165141.800,0.000
158824.000,182937.500,301914.700,272713.500,165822.300,161513.800,148646.500,165098.800,0.000
158853.000,183008.900,302037.400,272836.100,165996.000,161572.500,148756.600,165274.200,0.000
158859.200,183089.300,302138.700,272885.700,166260.000,161651.900,148858.500,165420.200,0.000
158835.300,183073.200,302069.000,272783.900,166259.100,161652.200,148821.500,165346.500,0.000
158815.700,182978.500,301903.800,272654.000,165988.400,161573.500,148697.800,165148.900,0.000
158826.700,182940.300,301855.100,272659.600,165823.500,161529.000,148661.400,165100.800,0.000
158858.000,183018.400,301996.000,272793.000,166002.800,161589.000,148772.900,165276.000,0.000
158860.000,183096.300,302116.200,272848.500,166266.900,161666.100,148873.000,165426.400,0.000
158839.600,183079.100,302055.300,272754.400,166267.400,161662.000,148833.800,165351.600,0.000
158813.700,182983.500,301886.200,272618.900,165997.400,161575.700,148706.800,165151.300,0.000
158818.600,182938.900,301828.900,272621.700,165829.800,161528.300,148668.100,165110.200,0.000
158849.700,183012.900,301954.800,272753.600,166004.500,161588.000,148782.100,165287.700,0.000
158866.600,183101.400,302069.900,272816.600,166275.900,161674.400,148891.800,165441.600,0.000
158841.200,183077.000,301998.100,272710.300,166275.300,161658.400,148846.600,165363.900,0.000
158814.200,182979.600,301826.300,272569.300,166003.000,161572.300,148711.600,165161.200,0.000
158833.300,182944.700,301781.800,272575.600,165840.000,161531.400,148675.100,165114.900,0.000
158871.800,183020.400,301913.600,272709.600,166017.000,161591.000,148784.500,165290.700,0.000
158871.800,183092.300,302018.800,272763.700,166276.700,161656.100,148877.300,165432.500,0.000
158855.500,183082.500,301961.500,272672.800,166285.700,161656.000,148838.000,165361.000,0.000
158833.500,182992.000,301797.600,272538.700,166022.900,161580.800,148707.100,165156.900,0.000
158844.600,182954.000,301745.700,272544.500,165853.600,161535.600,148666.400,165113.300,0.000
158872.300,183023.600,301865.100,272668.600,166015.700,161585.100,148769.500,165284.600,0.000
158878.100,183104.900,301977.300,272725.500,166279.900,161657.000,148870.000,165433.700,0.000
158857.000,183089.900,301917.600,272633.900,166288.100,161658.500,148837.000,165359.900,0.000
158830.900,182990.300,301748.200,272496.500,166020.200,161576.200,148707.400,165164.600,0.000
158843.200,182952.100,301696.500,272502.800,165853.200,161537.200,148668.800,165122.800,0.000
158872.500,183019.500,301816.100,272629.500,166015.100,161589.400,148772.600,165287.000,0.000
158879.200,183098.900,301925.900,272682.900,166278.400,161662.500,148869.200,165431.900,0.000
158857.400,183081.200,301861.900,272583.300,166285.200,161663.100,148828.300,165361.300,0.000
158832.300,182987.100,301693.800,272447.300,166020.200,161584.700,148703.100,165165.100,0.000
158840.800,182945.200,301640.300,272449.100,165846.700,161532.600,148659.900,165112.700,0.000
158868.100,183010.800,301759.500,272577.300,166003.900,161582.600,148755.200,165275.300,0.000
158877.500,183096.600,301878.000,272648.500,166277.600,161663.300,148859.600,165431.600,0.000
158849.800,183078.400,301820.000,272551.900,166291.000,161662.600,148824.700,165366.500,0.000
158824.000,182983.200,301655.100,272415.600,166029.100,161583.100,148696.500,165168.800,0.000
158829.600,182939.300,301595.800,272412.200,165857.200,161534.300,148657.100,165117.300,0.000
158853.900,183001.400,301678.000,272533.500,166014.900,161581.300,148758.500,165287.800,0.000
158866.600,183091.500,301791.100,272603.600,166289.800,161666.700,148870.900,165444.900,0.000
158843.800,183076.900,301742.200,272506.500,166302.000,161669.200,148836.600,165372.200,0.000
158815.400,182975.000,301573.300,272359.900,166031.000,161582.600,148702.900,165170.400,0.000
158832.200,182934.800,301525.400,272364.600,165855.600,161533.700,148656.600,165117.200,0.000
158868.000,183005.800,301653.700,272497.600,166015.000,161585.900,148755.400,165283.700,0.000
158870.700,183084.900,301770.800,272557.300,166280.300,161655.500,148852.700,165431.000,0.000
158852.200,183074.000,301720.500,272470.400,166297.300,161656.000,148818.900,165369.200,0.000
158832.700,182987.000,301559.500,272332.900,166037.100,161579.700,148698.800,165171.400,0.000
158839.600,182942.000,301499.900,272325.700,165853.500,161525.500,148648.600,165104.100,0.000
158871.900,183009.800,301619.600,272452.800,166010.500,161576.800,148752.200,165269.400,0.000
158887.900,183104.100,301743.800,272523.600,166291.000,161670.000,148867.000,165432.500,0.000
158866.500,183094.900,301690.800,272431.900,166315.700,161671.600,148841.700,165375.700,0.000
158842.000,182996.300,301519.200,272294.000,166051.400,161585.500,148716.200,165173.700,0.000
158843.800,182942.700,301451.800,272285.200,165862.400,161530.600,148666.900,165112.900,0.000
158871.600,183007.300,301568.200,272407.900,166016.800,161581.200,148767.800,165274.100,0.000
158883.500,183096.900,301690.700,272480.200,166295.800,161665.800,148881.000,165434.200,0.000
158863.200,183088.900,301644.100,272391.400,166322.700,161670.700,148854.900,165373.200,0.000
158841.200,182997.400,301481.900,272255.300,166061.700,161589.800,148727.300,165175.600,0.000
158853.800,182956.200,301423.000,272253.000,165878.200,161540.400,148676.700,165114.700,0.000
158882.300,183024.300,301539.500,272380.100,166027.900,161592.200,148776.800,165275.900,0.000
158896.400,183113.000,301658.300,272450.900,166299.200,161675.300,148887.600,165431.500,0.000
158868.600,183094.800,301596.700,272353.500,166314.300,161664.100,148851.900,165364.700,0.000
158843.700,182997.400,301428.500,272219.300,166052.800,161585.100,148723.200,165168.600,0.000
158848.100,182947.300,301362.800,272211.100,165864.800,161533.800,148672.500,165104.200,0.000
158872.900,183008.500,301474.400,272331.700,166010.300,161578.200,148768.400,165264.400,0.000
158884.000,183095.900,301601.100,272405.800,166288.000,161658.800,148879.000,165429.300,0.000
158855.900,183082.400,301549.500,272311.900,166314.700,161660.700,148850.500,165369.800,0.000
158827.100,182988.300,301381.700,272171.400,166054.500,161583.600,148723.600,165171.300,0.000
158826.200,182937.400,301310.800,272157.400,165861.000,161531.100,148673.100,165107.300,0.000
158853.400,183001.900,301418.800,272280.700,166004.000,161582.200,148771.100,165267.100,0.000
158859.800,183083.100,301529.600,272349.800,166275.900,161660.900,148877.300,165429.600,0.000
158837.000,183073.400,301475.500,272263.900,166303.400,161666.400,148849.800,165377.600,0.000
158816.800,182984.700,301311.100,272132.000,166047.500,161595.200,148724.200,165178.800,0.000
158819.300,182930.300,301242.700,272117.800,165855.700,161540.200,148670.700,165109.500,0.000
158853.500,182999.000,301364.900,272246.400,166004.300,161593.500,148773.700,165275.000,0.000
158861.100,183082.900,301485.800,272317.000,166272.300,161665.400,148878.800,165429.100,0.000
158838.800,183076.100,301438.500,272230.700,166303.300,161669.500,148852.800,165372.800,0.000
158817.700,182983.300,301274.500,272094.900,166047.500,161589.600,148726.500,165177.000,0.000
158828.900,182938.000,301210.800,272089.700,165856.600,161536.500,148676.600,165116.900,0.000
158858.400,182996.300,301320.800,272213.000,165992.900,161579.300,148767.700,165267.500,0.000
158869.200,183072.300,301438.400,272279.500,166260.700,161655.300,148871.700,165413.600,0.000
158853.500,183061.700,301396.200,272197.700,166299.800,161663.900,148853.500,165366.100,0.000
158832.600,182968.300,301233.900,272061.500,166044.700,161587.500,148727.700,165170.600,0.000
158838.900,182922.300,301167.300,272042.100,165847.700,161532.600,148670.000,165099.300,0.000
158868.300,182990.000,301284.900,272168.300,165990.000,161581.300,148767.100,165259.600,0.000
158884.600,183087.700,301419.200,272249.500,166274.100,161667.400,148884.400,165428.100,0.000
158870.800,183094.900,301387.600,272172.600,166323.000,161681.700,148870.100,165384.200,0.000
158841.100,183003.500,301219.300,272030.400,166073.100,161602.000,148743.700,165186.400,0.000
158846.300,182953.500,301145.300,272016.600,165884.100,161547.500,148688.000,165115.700,0.000
158873.200,183008.000,301247.300,272137.500,166016.500,161591.900,148779.700,165268.400,0.000
158886.100,183094.300,301370.400,272220.900,166295.700,161679.500,148895.200,165438.000,0.000
158867.100,183088.200,301327.100,272143.700,166342.700,161683.000,148877.400,165395.900,0.000
158844.500,182995.200,301161.000,272006.300,166091.600,161606.600,148750.200,165195.600,0.000
158841.400,182934.600,301079.200,271979.800,165883.700,161540.500,148683.800,165114.100,0.000
158864.200,182991.600,301185.800,272097.900,166016.700,161580.700,148774.900,165268.200,0.000
158871.900,183076.300,301311.600,272172.700,166292.300,161660.000,148885.600,165431.600,0.000
158855.100,183079.100,301274.200,272087.900,166337.000,161670.400,148865.400,165385.200,0.000
158838.000,182999.300,301114.300,271952.200,166093.500,161604.400,148746.400,165192.600,0.000
158849.300,182950.900,301044.100,271943.800,165899.200,161555.400,148693.100,165119.400,0.000
158872.600,183007.400,301153.800,272067.900,166028.000,161597.900,148785.300,165271.800,0.000
158885.500,183094.900,301284.200,272152.100,166304.900,161677.500,148901.500,165439.400,0.000
158861.100,183089.500,301245.800,272070.000,166346.400,161681.700,148879.100,165384.700,0.000
158839.500,183002.800,301087.000,271930.900,166098.100,161617.300,148757.000,165191.300,0.000
158845.200,182949.000,301012.200,271908.600,165894.500,161554.600,148702.400,165121.000,0.000
158875.700,183006.300,301121.000,272032.300,166019.100,161591.300,148789.100,165270.900,0.000
158887.000,183095.000,301245.800,272109.600,166293.100,161673.800,148895.300,165439.000,0.000
158862.100,183091.100,301201.800,272023.300,166339.800,161684.800,148879.300,165388.900,0.000
158839.900,183006.500,301038.000,271880.300,166093.900,161615.700,148757.000,165193.400,0.000
158854.200,182961.000,300967.200,271867.800,165897.200,161564.700,148702.500,165119.900,0.000
158882.600,183019.100,301075.200,271988.000,166024.400,161606.200,148794.900,165271.400,0.000
158891.700,183103.100,301202.200,272061.100,166298.400,161683.600,148908.800,165440.700,0.000
158875.000,183104.900,301174.700,271983.500,166355.200,161698.300,148897.300,165400.600,0.000
158851.300,183018.000,301015.800,271845.800,166108.000,161622.700,148772.300,165203.500,0.000
158855.000,182962.900,300938.700,271830.800,165900.100,161563.300,148711.900,165130.100,0.000
158878.500,183011.400,301038.400,271947.300,166016.100,161596.100,148790.300,165265.000,0.000
158888.000,183091.500,301159.200,272027.700,166286.000,161668.000,148890.200,165417.500,0.000
158867.300,183090.100,301120.800,271955.100,166342.000,161680.700,148875.200,165382.600,0.000
158840.700,182997.900,300953.900,271816.300,166094.300,161600.700,148749.900,165185.400,0.000
158843.800,182940.800,300874.300,271794.800,165882.700,161543.800,148685.500,165100.800,0.000
158874.200,182999.200,300984.700,271918.600,166006.100,161588.800,148777.300,165258.200,0.000
158890.800,183091.700,301119.500,272004.300,166289.900,161674.900,148895.000,165428.600,0.000
158867.600,183092.000,301083.900,271925.000,166348.300,161685.200,148882.000,165387.700,0.000
158844.100,183006.300,300922.300,271784.300,166108.000,161612.900,148758.200,165196.700,0.000
158851.500,182952.400,300847.400,271766.500,165900.800,161554.500,148693.900,165116.500,0.000
158879.900,183004.400,300948.600,271885.600,166014.700,161591.000,148780.000,165260.700,0.000
158887.300,183085.200,301071.400,271963.800,166285.700,161668.700,148895.100,165430.900,0.000
158862.900,183082.000,301034.200,271884.100,166343.500,161677.100,148882.700,165395.400,0.000
158836.700,182991.600,300872.300,271740.700,166101.600,161602.700,148758.100,165200.000,0.000
158840.700,182936.900,300793.400,271716.800,165888.100,161546.700,148694.400,165112.200,0.000
158869.900,182993.700,300899.900,271838.400,166005.600,161583.600,148784.500,165259.900,0.000
158886.800,183087.500,301037.200,271927.200,166287.200,161668.600,148904.400,165435.800,0.000
158866.500,183091.000,301005.900,271852.300,166351.300,161683.700,148891.100,165402.100,0.000
158838.000,183001.300,300838.600,271710.200,166106.500,161608.800,148766.500,165204.700,0.000
158839.900,182939.900,300751.500,271681.300,165886.300,161542.100,148694.700,165112.200,0.000
158867.600,182993.200,300851.400,271802.700,166001.900,161580.800,148783.000,165260.500,0.000
158883.800,183089.600,300987.100,271892.500,166291.100,161670.100,148905.800,165440.400,0.000
158866.000,183100.500,300963.500,271825.400,166362.400,161695.400,148902.200,165404.900,0.000
158838.100,183010.400,300799.500,271685.400,166119.400,161619.100,148773.600,165205.600,0.000
158838.100,182945.700,300711.200,271653.000,165896.300,161549.800,148700.800,165114.200,0.000
158864.400,182996.100,300809.200,271767.600,166000.900,161584.400,148779.100,165250.700,0.000
158878.400,183088.000,300942.800,271856.200,166283.600,161673.000,148894.500,165422.500,0.000
158859.400,183095.800,300915.200,271785.000,166353.200,161694.000,148885.300,165397.200,0.000
158834.300,183006.800,300749.100,271637.500,166112.000,161614.900,148761.000,165195.300,0.000
158838.200,182947.800,300662.100,271610.300,165892.800,161552.600,148692.400,165101.900,0.000
158869.500,183001.200,300767.400,271734.700,166004.000,161590.700,148781.600,165247.300,0.000
158884.800,183093.000,300906.300,271823.900,166288.900,161673.000,148901.000,165425.400,0.000
158867.200,183098.700,300885.200,271757.800,166366.100,161688.100,148895.100,165403.600,0.000
158840.800,183009.600,300722.900,271618.500,166129.900,161612.900,148771.700,165213.500,0.000
158845.900,182950.700,300637.800,271589.600,165909.700,161552.300,148704.300,165113.200,0.000
158873.900,183002.300,300735.500,271709.500,166015.100,161591.400,148790.100,165254.900,0.000
158887.700,183091.100,300867.000,271796.900,166292.000,161670.700,148906.300,165428.900,0.000
158866.200,183095.100,300838.000,271723.600,166361.200,161684.800,148896.700,165401.400,0.000
158839.900,183009.700,300676.500,271578.200,166127.200,161617.300,148778.100,165210.800,0.000
158845.500,182952.500,300594.200,271551.400,165905.600,161558.800,148713.900,165118.900,0.000
158872.300,183001.200,300692.900,271661.300,165998.900,161585.100,148792.000,165251.800,0.000
158894.000,183097.500,300835.900,271755.800,166284.600,161669.500,148913.500,165431.200,0.000
158880.100,183109.900,300819.800,271689.000,166369.900,161693.500,148911.400,165410.400,0.000
158852.200,183020.900,300657.700,271548.700,166137.000,161618.900,148786.900,165218.600,0.000
158851.200,182955.700,300567.300,271516.200,165910.400,161555.000,148712.300,165122.700,0.000
158879.800,183005.300,300664.900,271635.800,166012.000,161591.000,148793.900,165261.500,0.000
158894.000,183100.700,300799.300,271724.000,166292.800,161675.500,148908.500,165434.700,0.000
158880.300,183117.000,300784.900,271658.700,166375.900,161699.900,148906.300,165417.900,0.000
158847.100,183022.900,300620.300,271515.100,166137.200,161619.100,148776.300,165220.400,0.000
158850.500,182955.600,300531.400,271484.700,165908.600,161551.400,148699.300,165117.600,0.000
158878.800,183002.800,300629.100,271604.900,166003.600,161587.100,148777.600,165252.600,0.000
158893.100,183092.500,300788.100,271695.500,166283.400,161667.700,148893.300,165428.800,0.000
158880.300,183106.000,300822.100,271634.900,166373.300,161689.800,148889.100,165414.400,0.000
158846.100,183015.700,300641.100,271489.700,166141.300,161619.100,148762.200,165220.900,0.000
158848.800,182949.100,300529.800,271458.500,165912.600,161555.600,148693.600,165124.300,0.000
158878.400,182995.800,300614.700,271571.800,166008.200,161591.000,148781.100,165254.500,0.000
158896.000,183091.400,300747.800,271659.400,166294.800,161676.600,148903.800,165433.900,0.000
158882.400,183107.300,300731.400,271596.600,166389.200,161704.200,148911.600,165423.600,0.000
158861.500,183023.400,300574.200,271457.700,166162.300,161630.100,148792.800,165236.300,0.000
158857.300,182952.300,300473.000,271416.800,165922.900,161561.300,148709.800,165124.300,0.000
158884.300,182996.100,300559.400,271528.500,166006.800,161591.400,148785.000,165255.300,0.000
158903.400,183093.500,300699.000,271628.700,166293.200,161675.000,148904.800,165442.100,0.000
158876.600,183098.300,300675.900,271561.600,166375.500,161689.800,148895.900,165412.400,0.000
158839.600,183003.900,300509.000,271410.900,166137.200,161616.500,148764.500,165215.400,0.000
158843.000,182936.000,300415.900,271378.900,165903.400,161551.400,148694.000,165118.300,0.000
158869.000,182976.500,300503.200,271488.300,165985.800,161577.100,148773.800,165247.700,0.000
158882.600,183066.900,300640.800,271584.200,166265.500,161657.100,148892.400,165422.200,0.000
158864.500,183079.000,300623.800,271521.900,166355.800,161673.500,148884.300,165402.600,0.000
158849.700,183002.100,300470.000,271385.900,166134.400,161607.300,148767.800,165214.100,0.000
158851.200,182934.500,300372.800,271349.200,165900.300,161541.300,148692.700,165103.900,0.000
158883.700,182984.700,300466.400,271464.700,165990.700,161573.300,148768.400,165233.300,0.000
158904.500,183085.300,300613.800,271564.500,166283.000,161665.500,148898.300,165425.500,0.000
158887.200,183103.400,300606.800,271505.100,166381.500,161693.900,148906.100,165417.800,0.000
158854.600,183014.600,300443.800,271359.500,166152.500,161624.000,148782.600,165227.000,0.000
158851.900,182941.100,300345.400,271319.600,165910.600,161549.600,148698.800,165115.700,0.000
158878.000,182984.400,300433.000,271427.300,165987.500,161578.200,148769.000,165236.000,0.000
158901.000,183089.300,300580.300,271528.300,166279.000,161671.000,148898.300,165427.300,0.000
158891.000,183114.000,300577.900,271474.600,166386.700,161699.500,148911.000,165419.000,0.000
158860.000,183025.000,300415.300,271331.900,166159.600,161624.900,148785.800,165223.800,0.000
158857.100,182955.700,300313.500,271293.700,165916.800,161555.000,148705.700,165112.400,0.000
158872.500,182990.200,300390.700,271390.500,165985.300,161576.400,148772.900,165230.300,0.000
158887.500,183085.700,300530.000,271481.300,166267.400,161660.000,148895.300,165413.500,0.000
158876.600,183111.500,300528.100,271430.100,166377.400,161696.900,148908.800,165412.700,0.000
158840.500,183017.700,300366.200,271282.600,166149.500,161625.900,148782.000,165219.600,0.000
158833.700,182939.200,300260.900,271235.800,165902.900,161547.600,148691.000,165104.200,0.000
158868.700,182986.000,300352.800,271349.400,165985.800,161579.300,148767.200,165227.900,0.000
158887.300,183080.600,300494.000,271446.400,166271.300,161662.000,148896.700,165415.300,0.000
158869.800,183095.900,300486.000,271390.700,166375.000,161687.700,148907.200,165411.500,0.000
158850.500,183015.300,300334.500,271256.600,166158.900,161625.400,148793.300,165229.200,0.000
158851.700,182942.900,300229.800,271215.700,165912.000,161555.200,148707.900,165111.700,0.000
158879.900,182983.500,300310.500,271324.300,165981.200,161582.600,148777.300,165231.400,0.000
158897.100,183079.800,300452.800,271427.000,166261.000,161666.000,148900.500,165416.000,0.000
158875.800,183092.200,300441.600,271369.200,166361.900,161683.600,148899.900,165407.800,0.000
158846.400,183007.100,300284.500,271227.500,166145.100,161618.700,148772.300,165216.000,0.000
158847.200,182938.000,300182.000,271184.100,165900.800,161549.500,148686.300,165101.400,0.000
158875.000,182977.900,300263.200,271289.100,165965.600,161574.600,148761.700,165219.700,0.000
158891.300,183073.200,300405.800,271388.500,166246.700,161660.300,148885.700,165405.100,0.000
158875.700,183090.600,300402.400,271338.000,166358.200,161693.300,148900.300,165406.800,0.000
158844.200,182999.600,300240.200,271189.100,166141.300,161619.900,148780.500,165213.500,0.000
158845.000,182928.700,300139.600,271147.800,165900.700,161548.200,148696.200,165097.000,0.000
158868.000,182964.600,300222.300,271255.300,165968.500,161567.300,148760.800,165211.400,0.000
158889.100,183063.300,300372.400,271364.500,166259.700,161652.100,148888.600,165403.000,0.000
158876.400,183086.400,300377.300,271320.500,166376.000,161684.400,148903.000,165409.100,0.000
158853.900,183008.800,300226.400,271183.100,166166.400,161622.300,148786.900,165221.000,0.000
158855.500,182943.900,300123.900,271139.000,165922.500,161556.100,148704.800,165108.700,0.000
158885.500,182990.000,300211.100,271246.600,165992.900,161584.000,148774.000,165226.700,0.000
158903.100,183085.700,300357.200,271351.400,166275.600,161668.300,148900.400,165417.800,0.000
158887.700,183107.800,300357.000,271304.400,166390.700,161701.200,148918.800,165423.400,0.000
158852.800,183017.200,300193.500,271153.100,166171.300,161630.100,148793.000,165225.100,0.000
158856.600,182949.300,300091.200,271108.700,165928.200,161566.000,148710.900,165107.300,0.000
158881.400,182984.400,300168.900,271213.200,165988.600,161589.200,148773.800,165222.600,0.000
158891.900,183076.200,300308.800,271313.000,166268.000,161668.000,148900.500,165410.300,0.000
158878.000,183104.500,300315.600,271266.300,166385.800,161704.500,148917.300,165416.800,0.000
158851.500,183025.100,300165.500,271117.900,166174.000,161638.300,148797.900,165230.100,0.000
158848.300,182950.800,300056.000,271061.500,165920.200,161564.900,148710.500,165107.300,0.000
158877.400,182991.600,300136.600,271170.000,165980.300,161592.800,148780.200,165223.800,0.000
158900.900,183087.100,300282.800,271281.000,166263.500,161674.700,148905.300,165417.000,0.000
158889.400,183107.800,300285.300,271236.600,166381.800,161703.300,148918.400,165424.100,0.000
158851.000,183014.400,300120.100,271083.500,166160.900,161623.100,148786.600,165215.700,0.000
158844.300,182936.700,300008.800,271030.900,165907.100,161548.600,148695.400,165088.400,0.000
158870.400,182975.800,300087.900,271135.100,165961.600,161574.000,148761.800,165205.200,0.000
158901.500,183086.600,300248.500,271253.600,166256.800,161675.900,148901.400,165406.000,0.000
158886.800,183114.000,300253.900,271203.700,166382.300,161708.000,148922.600,165414.200,0.000
158857.100,183033.400,300097.800,271057.700,166174.600,161644.200,148807.800,165230.800,0.000
158856.700,182961.800,299991.200,271010.700,165928.500,161577.500,148726.600,165116.300,0.000
158877.800,182991.100,300063.100,271114.700,165977.800,161593.500,148784.100,165218.900,0.000
158896.200,183084.300,300210.100,271226.200,166260.300,161680.800,148907.600,165409.600,0.000
158883.200,183110.800,300218.200,271186.600,166386.800,161714.700,148925.100,165421.200,0.000
158858.400,183034.300,300067.300,271043.500,166182.500,161653.300,148810.600,165231.200,0.000
158857.800,182961.900,299959.100,270990.300,165929.700,161585.500,148724.800,165105.000,0.000
158878.400,182990.100,300029.600,271086.500,165971.600,161591.900,148778.200,165205.800,0.000
158905.900,183094.500,300182.000,271196.100,166259.300,161683.900,148913.000,165404.300,0.000
158895.200,183121.900,300187.300,271153.100,166384.100,161721.400,148933.100,165415.800,0.000
158868.500,183041.500,300036.100,271011.500,166180.600,161660.600,148813.200,165232.600,0.000
158862.500,182958.400,299920.300,270959.200,165922.900,161580.300,148718.600,165108.200,0.000
158885.100,182984.700,299989.400,271063.100,165966.900,161586.900,148776.000,165213.600,0.000
158909.000,183083.900,300142.600,271177.100,166252.800,161673.100,148906.000,165403.700,0.000
158895.500,183116.700,300156.300,271135.300,166385.900,161712.000,148929.000,165423.900,0.000
158862.200,183034.500,300001.700,270985.500,166180.400,161647.700,148811.300,165238.700,0.000
158853.100,182954.000,299883.900,270923.600,165920.000,161568.500,148715.500,165105.000,0.000
158883.600,182989.500,299956.200,271027.500,165966.900,161590.700,148780.700,165217.500,0.000
158912.600,183093.800,300110.100,271143.800,166256.700,161688.000,148920.500,165422.200,0.000
158889.300,183109.000,300116.800,271100.800,166379.100,161712.800,148934.900,165431.000,0.000
158852.300,183021.100,299964.300,270952.000,166172.100,161640.000,148810.000,165237.400,0.000
158853.100,182952.400,299854.300,270904.800,165921.800,161569.500,148720.400,165112.100,0.000
158881.700,182988.100,299929.400,271007.400,165967.900,161592.900,148780.900,165213.300,0.000
158898.200,183082.300,300076.800,271110.800,166248.000,161678.300,148908.100,165403.400,0.000
158878.400,183104.100,300085.600,271065.300,166377.700,161705.100,148925.400,165415.100,0.000
158852.300,183026.700,299935.700,270924.900,166180.800,161648.300,148812.400,165237.000,0.000
158849.400,182949.000,299818.800,270871.800,165919.600,161572.600,148719.300,165108.200,0.000
158878.000,182981.600,299893.300,270976.300,165961.600,161588.500,148779.600,165213.900,0.000
158897.000,183074.000,300039.500,271085.500,166239.100,161670.900,148906.300,165409.500,0.000
158884.600,183103.600,300053.500,271045.700,166372.300,161710.000,148929.600,165427.000,0.000
158852.300,183024.000,299901.800,270896.700,166173.500,161645.000,148814.700,165234.100,0.000
158841.600,182941.300,299778.600,270832.200,165910.100,161563.900,148713.400,165096.200,0.000
158870.200,182976.600,299850.500,270933.700,165949.300,161584.300,148774.700,165199.800,0.000
158893.600,183078.000,300004.700,271044.500,166231.800,161670.400,148905.100,165396.500,0.000
158883.500,183110.500,300022.600,271005.300,166374.400,161710.600,148931.100,165420.100,0.000
158858.100,183034.500,299878.500,270865.700,166183.400,161652.400,148821.400,165241.600,0.000
158852.700,182954.300,299759.700,270807.000,165919.100,161577.000,148726.500,165106.400,0.000
158870.400,182976.100,299820.000,270902.300,165947.200,161592.900,148771.100,165198.100,0.000
158892.100,183073.800,299971.100,271017.700,166230.600,161673.400,148901.400,165393.700,0.000
158884.300,183110.100,299992.900,270985.800,166374.100,161717.900,148931.100,165415.700,0.000
158861.100,183038.700,299852.500,270846.300,166187.400,161660.300,148823.500,165242.800,0.000
158856.500,182962.200,299735.100,270784.300,165927.200,161582.300,148730.800,165108.900,0.000
158875.400,182987.600,299796.700,270876.700,165955.600,161592.500,148783.000,165205.400,0.000
158898.900,183083.000,299946.100,270987.500,166231.200,161678.100,148907.400,165398.900,0.000
158894.300,183116.900,299967.500,270954.000,166377.900,161729.200,148939.800,165423.800,0.000
158873.300,183043.600,299826.200,270817.900,166195.200,161673.200,148838.100,165252.700,0.000
158873.000,182969.300,299711.500,270761.000,165939.500,161603.200,148746.000,165120.400,0.000
158902.000,183003.200,299785.100,270868.100,165977.500,161619.800,148802.500,165218.800,0.000
158922.400,183100.700,299941.800,270984.500,166258.800,161700.400,148929.000,165413.400,0.000
158909.600,183134.500,299962.500,270951.500,166401.600,161738.600,148957.700,165442.100,0.000
158881.500,183057.100,299810.000,270806.900,166208.800,161673.800,148841.500,165256.500,0.000
158872.000,182973.500,299685.000,270738.800,165943.700,161596.100,148745.400,165118.500,0.000
158894.000,182995.000,299741.800,270831.300,165970.900,161608.100,148792.300,165209.300,0.000
158906.900,183076.500,299877.600,270933.400,166234.200,161677.200,148903.800,165392.900,0.000
158896.100,183108.500,299896.200,270902.800,166375.500,161718.500,148936.000,165422.400,0.000
158867.600,183034.200,299747.500,270757.600,166190.300,161665.800,148826.200,165239.200,0.000
158861.900,182958.100,299628.400,270693.800,165931.400,161587.500,148728.600,165103.700,0.000
158895.400,182997.400,299704.400,270800.000,165968.800,161606.100,148781.800,165202.800,0.000
158918.800,183096.600,299861.500,270921.200,166250.000,161689.100,148909.000,165404.300,0.000
158901.800,183127.300,299883.200,270885.800,166394.900,161728.800,148938.100,165423.800,0.000
158871.600,183051.100,299739.700,270747.500,166212.200,161674.500,148831.900,165251.200,0.000
158863.000,182967.500,299615.600,270679.300,165948.400,161592.700,148733.000,165112.200,0.000
158888.100,182990.600,299676.500,270771.200,165972.200,161602.100,148783.500,165203.000,0.000
158915.900,183087.600,299830.500,270890.600,166253.600,161687.700,148918.900,165404.500,0.000
158901.700,183113.000,299850.100,270856.600,166397.000,161723.300,148946.800,165433.700,0.000
158873.400,183037.800,299707.900,270714.500,166214.400,161661.500,148833.300,165255.300,0.000
158870.900,182965.000,299592.100,270654.800,165955.700,161586.700,148733.900,165113.800,0.000
158903.300,183001.800,299661.600,270758.100,165982.500,161606.500,148787.100,165209.200,0.000
158928.000,183103.800,299814.000,270878.900,166257.400,161696.400,148917.500,165410.700,0.000
158915.500,183139.100,299835.800,270850.800,166405.800,161735.000,148949.200,165438.600,0.000
158886.800,183063.600,299691.900,270711.900,166227.100,161675.000,148840.500,165263.900,0.000
158878.700,182981.700,299569.200,270643.600,165961.800,161600.300,148740.900,165121.400,0.000
158899.400,183003.500,299625.300,270729.500,165978.300,161609.600,148787.700,165203.900,0.000
158920.500,183094.900,299771.500,270839.500,166252.100,161691.000,148917.300,165398.900,0.000
158912.100,183126.300,299793.900,270812.400,166406.300,161730.600,148949.100,165437.000,0.000
158883.300,183048.600,299646.900,270667.100,166227.000,161672.700,148837.900,165258.000,0.000
158881.100,182968.700,299528.200,270605.100,165963.400,161599.300,148740.900,165116.500,0.000
158905.400,182992.700,299586.800,270699.400,165975.700,161608.800,148789.400,165200.500,0.000
158927.100,183090.100,299738.500,270820.300,166250.100,161694.400,148919.500,165398.300,0.000
