EEG 1, EEG 2, EEG 3, EEG 4, EEG 5, EEG 6, EEG 7, EEG 8, TRIG
750000.100,750000.100,-349702.000,695754.100,750000.100,750000.100,750000.100,750000.100,0.000
750000.100,750000.100,-534275.500,663026.600,750000.100,750000.100,750000.100,750000.100,0.000
750000.100,750000.100,-94083.500,741950.200,750000.100,750000.100,750000.100,750000.100,0.000
750000.100,725453.000,187200.500,750000.100,750000.100,750000.100,750000.100,750000.100,0.000
750000.100,750000.100,449633.300,750000.100,750000.100,750000.100,750000.100,750000.100,0.000
750000.100,750000.100,569563.800,750000.100,750000.100,750000.100,750000.100,750000.100,0.000
750000.100,750000.100,684776.900,750000.100,750000.100,750000.100,750000.100,750000.100,0.000
750000.100,750000.100,750000.100,750000.100,750000.100,750000.100,750000.100,750000.100,0.000
750000.100,750000.100,750000.100,750000.100,750000.100,750000.100,750000.100,750000.100,0.000
750000.100,750000.100,750000.100,750000.100,750000.100,750000.100,750000.100,750000.100,0.000
750000.100,750000.100,750000.100,750000.100,750000.100,750000.100,615751.200,750000.100,0.000
677220.600,750000.100,750000.100,750000.100,709767.600,735582.600,509384.100,722081.000,0.000
571748.400,639885.600,750000.100,750000.100,595728.000,619862.200,432789.700,608611.600,0.000
491417.300,548182.900,750000.100,750000.100,510547.000,531716.400,373888.300,522129.100,0.000
426900.000,474696.000,750000.100,750000.100,442458.500,460979.800,326085.000,452818.500,0.000
372983.900,413796.300,750000.100,750000.100,385932.500,402086.400,286060.200,395170.000,0.000
327332.600,362172.800,750000.100,750000.100,338147.100,352082.800,252270.300,346279.300,0.000
288591.300,318330.600,750000.100,740824.400,297672.800,309820.300,223193.300,304817.800,0.000
257119.500,283056.300,662565.900,653318.400,264874.700,275789.800,199362.600,271336.600,0.000
242378.600,266330.300,618454.600,610195.800,249354.500,259659.200,188466.600,255468.200,0.000
237862.500,260932.100,601630.600,593788.900,244526.000,254569.700,185479.800,250496.600,0.000
234118.000,256510.500,587435.100,579847.900,240590.600,250342.000,183070.700,246397.500,0.000
230585.400,252386.100,574244.300,566945.100,236856.000,246388.400,180794.000,242527.300,0.000
227258.700,248508.600,561927.900,555005.000,233274.800,242676.800,178635.200,238847.700,0.000
224147.000,244887.300,550532.500,543980.000,229952.200,239201.100,176620.500,235453.200,0.000
221238.900,241544.000,540077.000,533741.300,226949.100,235974.900,174751.000,232344.300,0.000
218508.800,238437.300,530358.000,524147.300,224170.300,232949.800,172986.200,229403.700,0.000
215925.700,235506.900,521196.000,515161.800,221513.100,230116.900,171317.100,226625.900,0.000
213492.600,232723.200,512546.600,506785.900,218938.000,227437.300,169730.200,223998.800,0.000
211219.000,230110.500,504488.700,498992.200,216520.000,224924.800,168245.400,221540.800,0.000
209091.000,227679.200,497041.700,491675.000,214330.300,222574.100,166864.500,219271.000,0.000
207078.300,225400.700,490070.400,484764.000,212302.000,220362.000,165550.700,217146.600,0.000
205170.300,223238.600,483435.000,478250.100,210327.500,218264.600,164291.000,215094.300,0.000
203382.500,221189.100,477125.600,472141.100,208409.300,216292.600,163106.000,213125.300,0.000
201707.300,219254.800,471213.600,466434.800,206616.900,214430.800,162004.100,211326.900,0.000
200122.400,217444.100,465720.300,461039.200,204985.400,212675.700,160955.700,209641.100,0.000
198627.400,215761.500,460568.700,455918.800,203494.100,211052.200,159985.000,208053.900,0.000
197195.700,214147.300,455619.600,451048.400,202036.900,209497.900,159045.900,206513.200,0.000
195847.200,212598.100,450872.700,446469.500,200583.300,208004.000,158143.600,205029.100,0.000
194585.000,211137.500,446419.700,442179.900,199215.700,206603.400,157304.600,203671.200,0.000
193398.000,209775.300,442294.700,438109.800,197987.900,205284.600,156507.400,202387.500,0.000
192273.100,208499.900,438401.900,434217.400,196862.000,204050.200,155765.800,201180.100,0.000
191202.100,207283.300,434645.400,430512.200,195761.000,202883.300,155058.900,200020.200,0.000
190178.300,206096.300,431004.100,427007.900,194639.800,201745.500,154371.000,198887.500,0.000
189215.500,204969.300,427569.600,423715.300,193581.600,200666.600,153723.500,197840.300,0.000
188313.800,203931.800,424407.300,420592.700,192661.600,199664.200,153127.300,196881.200,0.000
187456.800,202961.900,421422.100,417588.400,191819.700,198724.700,152562.500,195966.700,0.000
186634.000,202031.700,418516.100,414717.300,190987.000,197824.400,152024.700,195096.000,0.000
185844.600,201124.800,415678.100,412002.900,190124.900,196954.500,151500.000,194226.600,0.000
185110.500,200266.500,413003.100,409455.500,189309.600,196131.600,151012.300,193422.800,0.000
184415.600,199462.200,410534.200,407025.500,188592.600,195361.500,150555.600,192683.600,0.000
183764.300,198719.600,408213.400,404688.900,187956.300,194645.900,150127.400,191996.200,0.000
183143.600,198011.500,405940.700,402450.300,187328.600,193960.000,149725.600,191319.200,0.000
182537.600,197309.000,403702.100,400326.400,186671.300,193291.700,149332.100,190658.100,0.000
181975.300,196640.700,401591.800,398325.200,186043.700,192651.700,148957.300,190036.200,0.000
181455.100,196030.800,399669.800,396428.600,185514.300,192059.300,148612.100,189479.600,0.000
180957.500,195467.600,397857.900,394583.700,185041.700,191515.900,148298.800,188958.300,0.000
180475.500,194921.300,396071.500,392798.000,184550.200,190995.600,147998.200,188442.800,0.000
180019.000,194388.000,394302.800,391116.800,184028.100,190483.800,147696.700,187932.600,0.000
179606.000,193892.600,392639.600,389549.900,183545.700,190012.000,147431.600,187469.400,0.000
179209.400,193426.900,391127.800,388049.300,183138.200,189564.200,147177.800,187052.600,0.000
178824.300,192991.800,389699.500,386575.100,182768.300,189139.900,146924.100,186615.400,0.000
178467.000,192580.700,388285.900,385169.400,182409.400,188749.100,146707.300,186229.500,0.000
178127.000,192172.600,386871.200,383850.400,182023.300,188371.500,146503.300,185860.000,0.000
177790.500,191776.100,385528.800,382604.800,181646.600,188000.600,146292.100,185492.500,0.000
177462.200,191431.400,384334.300,381421.500,181354.500,187659.400,146115.500,185188.000,0.000
177174.500,191118.000,383205.800,380249.900,181099.100,187351.700,145947.200,184879.900,0.000
176913.000,190813.600,382073.800,379127.300,180834.800,187065.500,145801.200,184602.500,0.000
176658.800,190500.900,380926.000,378063.000,180525.300,186765.700,145643.300,184307.500,0.000
176431.400,190208.200,379852.200,377075.000,180235.400,186492.400,145497.900,184031.100,0.000
176224.800,189952.200,378908.800,376131.900,180020.600,186247.900,145381.100,183810.700,0.000
176031.500,189726.400,378029.100,375206.200,179851.900,186031.400,145275.700,183603.800,0.000
175838.300,189502.700,377123.800,374306.100,179664.200,185819.600,145170.700,183390.900,0.000
175647.300,189269.800,376189.400,373454.100,179428.300,185597.200,145058.600,183164.700,0.000
175471.100,189050.700,375315.000,372671.600,179212.400,185394.100,144979.200,182993.100,0.000
175320.200,188866.700,374562.400,371923.100,179065.100,185216.900,144896.400,182824.100,0.000
175186.400,188708.600,373865.500,371176.500,178952.800,185060.700,144820.500,182658.300,0.000
175047.600,188553.600,373142.200,370452.500,178825.700,184916.700,144764.900,182514.600,0.000
174909.800,188384.300,372390.700,369769.000,178655.400,184758.000,144699.800,182355.900,0.000
174792.000,188221.200,371686.700,369137.200,178487.500,184607.100,144635.700,182207.900,0.000
174688.400,188087.700,371089.100,368537.800,178382.500,184483.800,144594.300,182104.700,0.000
174688.400,188087.700,371089.100,368537.800,178382.500,184483.800,144594.300,182104.700,0.000
174688.400,188087.700,371089.100,368537.800,178382.500,184483.800,144594.300,182104.700,0.000
174688.400,188087.700,371089.100,368537.800,178382.500,184483.800,144594.300,182104.700,0.000
174688.400,188087.700,371089.100,368537.800,178382.500,184483.800,144594.300,182104.700,0.000
174688.400,188087.700,371089.100,368537.800,178382.500,184483.800,144594.300,182104.700,0.000
174688.400,188087.700,371089.100,368537.800,178382.500,184483.800,144594.300,182104.700,0.000
174688.400,188087.700,371089.100,368537.800,178382.500,184483.800,144594.300,182104.700,0.000
174688.400,188087.700,371089.100,368537.800,178382.500,184483.800,144594.300,182104.700,0.000
174688.400,188087.700,371089.100,368537.800,178382.500,184483.800,144594.300,182104.700,0.000
174688.400,188087.700,371089.100,368537.800,178382.500,184483.800,144594.300,182104.700,0.000
174688.400,188087.700,371089.100,368537.800,178382.500,184483.800,144594.300,182104.700,0.000
174688.400,188087.700,371089.100,368537.800,178382.500,184483.800,144594.300,182104.700,0.000
174688.400,188087.700,371089.100,368537.800,178382.500,184483.800,144594.300,182104.700,0.000
173917.000,187000.900,364474.300,362149.300,177475.500,183483.200,144419.200,181144.500,0.000
173901.800,186973.500,364177.800,361855.400,177475.600,183460.300,144441.800,181142.700,0.000
173888.300,186955.900,363905.400,361534.700,177502.500,183445.500,144463.400,181132.700,0.000
173871.900,186933.900,363584.600,361206.000,177496.500,183429.800,144480.200,181117.500,0.000
173855.400,186900.300,363217.400,360906.300,177440.800,183407.100,144497.700,181079.900,0.000
173849.600,186873.200,362882.900,360645.900,177390.500,183387.700,144517.600,181058.300,0.000
173858.700,186870.300,362640.300,360394.300,177403.900,183379.400,144545.300,181071.300,0.000
173871.200,186884.900,362438.700,360130.800,177448.500,183387.500,144586.600,181089.700,0.000
173875.500,186892.400,362193.800,359859.800,177459.100,183393.200,144617.000,181082.000,0.000
173883.700,186882.900,361900.400,359617.600,177422.900,183388.500,144643.800,181068.900,0.000
173883.700,186882.900,361900.400,359617.600,177422.900,183388.500,144643.800,181068.900,0.000
173883.700,186882.900,361900.400,359617.600,177422.900,183388.500,144643.800,181068.900,0.000
173883.700,186882.900,361900.400,359617.600,177422.900,183388.500,144643.800,181068.900,0.000
173883.700,186882.900,361900.400,359617.600,177422.900,183388.500,144643.800,181068.900,0.000
173883.700,186882.900,361900.400,359617.600,177422.900,183388.500,144643.800,181068.900,0.000
173883.700,186882.900,361900.400,359617.600,177422.900,183388.500,144643.800,181068.900,0.000
173883.700,186882.900,361900.400,359617.600,177422.900,183388.500,144643.800,181068.900,0.000
173883.700,186882.900,361900.400,359617.600,177422.900,183388.500,144643.800,181068.900,0.000
173883.700,186882.900,361900.400,359617.600,177422.900,183388.500,144643.800,181068.900,0.000
173883.700,186882.900,361900.400,359617.600,177422.900,183388.500,144643.800,181068.900,0.000
173883.700,186882.900,361900.400,359617.600,177422.900,183388.500,144643.800,181068.900,0.000
173883.700,186882.900,361900.400,359617.600,177422.900,183388.500,144643.800,181068.900,0.000
173883.700,186882.900,361900.400,359617.600,177422.900,183388.500,144643.800,181068.900,0.000
173883.700,186882.900,361900.400,359617.600,177422.900,183388.500,144643.800,181068.900,0.000
173883.700,186882.900,361900.400,359617.600,177422.900,183388.500,144643.800,181068.900,0.000
173883.700,186882.900,361900.400,359617.600,177422.900,183388.500,144643.800,181068.900,0.000
173883.700,186882.900,361900.400,359617.600,177422.900,183388.500,144643.800,181068.900,0.000
173883.700,186882.900,361900.400,359617.600,177422.900,183388.500,144643.800,181068.900,0.000
173883.700,186882.900,361900.400,359617.600,177422.900,183388.500,144643.800,181068.900,0.000
173883.700,186882.900,361900.400,359617.600,177422.900,183388.500,144643.800,181068.900,0.000
174500.600,187328.000,358353.800,356353.000,177977.400,183902.000,145591.800,181596.400,0.000
174547.300,187371.200,358285.100,356273.800,178042.100,183935.200,145658.800,181666.700,0.000
174587.900,187417.900,358227.800,356154.900,178120.300,183982.900,145710.600,181711.000,0.000
174630.500,187464.200,358127.300,356031.800,178169.500,184025.800,145756.000,181735.300,0.000
174670.000,187494.900,357972.900,355932.400,178174.900,184063.600,145806.400,181766.300,0.000
174708.400,187513.500,357828.300,355850.900,178177.800,184091.900,145846.800,181788.100,0.000
174756.000,187552.300,357765.000,355776.800,178236.900,184127.300,145895.000,181827.500,0.000
174806.100,187609.400,357731.700,355691.500,178329.800,184177.600,145955.200,181897.000,0.000
174846.800,187655.300,357643.800,355590.000,178387.300,184223.600,146012.000,181950.500,0.000
174879.400,187679.300,357494.200,355498.600,178388.500,184251.900,146045.500,181958.900,0.000
174924.700,187706.300,357373.700,355442.700,178397.700,184284.400,146092.500,181990.400,0.000
174974.100,187744.700,357326.400,355387.800,178457.900,184324.000,146143.400,182046.400,0.000
175025.100,187803.500,357305.700,355310.600,178545.900,184380.800,146203.100,182106.700,0.000
175063.300,187849.200,357223.100,355210.200,178592.400,184429.500,146255.000,182141.500,0.000
175102.300,187881.400,357088.000,355133.600,178594.800,184463.400,146299.000,182168.700,0.000
175151.000,187910.800,356968.400,355085.700,178604.800,184495.200,146343.400,182205.900,0.000
175201.800,187956.000,356931.300,355036.400,178674.000,184541.500,146399.300,182266.700,0.000
175252.600,188020.800,356922.400,354969.500,178767.400,184597.500,146459.000,182329.100,0.000
175295.300,188076.800,356862.500,354885.300,178825.900,184648.000,146509.900,182371.800,0.000
175331.700,188103.300,356738.700,354810.300,178835.800,184679.500,146551.400,182398.200,0.000
175375.700,188129.300,356633.300,354767.700,178848.500,184716.200,146594.200,182428.200,0.000
175423.300,188172.500,356602.200,354728.400,178898.100,184752.400,146639.800,182471.500,0.000
175472.600,188236.000,356598.700,354671.100,178983.900,184809.000,146700.600,182541.700,0.000
175508.000,188281.600,356529.900,354587.700,179033.100,184859.000,146746.200,182576.500,0.000
175551.800,188311.800,356407.900,354525.000,179035.300,184897.600,146788.700,182602.000,0.000
175599.800,188338.400,356307.300,354487.400,179036.900,184929.100,146830.000,182630.600,0.000
175649.300,188382.500,356287.700,354455.500,179095.500,184975.000,146883.500,182692.200,0.000
175690.900,188433.000,356284.900,354398.000,179178.800,185023.400,146940.500,182757.300,0.000
175723.500,188469.000,356223.300,354319.300,179222.100,185059.700,146978.000,182782.900,0.000
175767.500,188502.000,356117.300,354267.200,179229.100,185095.800,147021.200,182809.500,0.000
175797.600,188522.600,356013.300,354231.900,179223.100,185120.100,147051.800,182842.000,0.000
175797.600,188522.600,356013.300,354231.900,179223.100,185120.100,147051.800,182842.000,0.000
175797.600,188522.600,356013.300,354231.900,179223.100,185120.100,147051.800,182842.000,0.000
175797.600,188522.600,356013.300,354231.900,179223.100,185120.100,147051.800,182842.000,0.000
175797.600,188522.600,356013.300,354231.900,179223.100,185120.100,147051.800,182842.000,0.000
175797.600,188522.600,356013.300,354231.900,179223.100,185120.100,147051.800,182842.000,0.000
175797.600,188522.600,356013.300,354231.900,179223.100,185120.100,147051.800,182842.000,0.000
175797.600,188522.600,356013.300,354231.900,179223.100,185120.100,147051.800,182842.000,0.000
175797.600,188522.600,356013.300,354231.900,179223.100,185120.100,147051.800,182842.000,0.000
175797.600,188522.600,356013.300,354231.900,179223.100,185120.100,147051.800,182842.000,0.000
175797.600,188522.600,356013.300,354231.900,179223.100,185120.100,147051.800,182842.000,0.000
175797.600,188522.600,356013.300,354231.900,179223.100,185120.100,147051.800,182842.000,0.000
175797.600,188522.600,356013.300,354231.900,179223.100,185120.100,147051.800,182842.000,0.000
175797.600,188522.600,356013.300,354231.900,179223.100,185120.100,147051.800,182842.000,0.000
175797.600,188522.600,356013.300,354231.900,179223.100,185120.100,147051.800,182842.000,0.000
175797.600,188522.600,356013.300,354231.900,179223.100,185120.100,147051.800,182842.000,0.000
175797.600,188522.600,356013.300,354231.900,179223.100,185120.100,147051.800,182842.000,0.000
175797.600,188522.600,356013.300,354231.900,179223.100,185120.100,147051.800,182842.000,0.000
175797.600,188522.600,356013.300,354231.900,179223.100,185120.100,147051.800,182842.000,0.000
175797.600,188522.600,356013.300,354231.900,179223.100,185120.100,147051.800,182842.000,0.000
175797.600,188522.600,356013.300,354231.900,179223.100,185120.100,147051.800,182842.000,0.000
175797.600,188522.600,356013.300,354231.900,179223.100,185120.100,147051.800,182842.000,0.000
175797.600,188522.600,356013.300,354231.900,179223.100,185120.100,147051.800,182842.000,0.000
175797.600,188522.600,356013.300,354231.900,179223.100,185120.100,147051.800,182842.000,0.000
175797.600,188522.600,356013.300,354231.900,179223.100,185120.100,147051.800,182842.000,0.000
175797.600,188522.600,356013.300,354231.900,179223.100,185120.100,147051.800,182842.000,0.000
175797.600,188522.600,356013.300,354231.900,179223.100,185120.100,147051.800,182842.000,0.000
175797.600,188522.600,356013.300,354231.900,179223.100,185120.100,147051.800,182842.000,0.000
175797.600,188522.600,356013.300,354231.900,179223.100,185120.100,147051.800,182842.000,0.000
175797.600,188522.600,356013.300,354231.900,179223.100,185120.100,147051.800,182842.000,0.000
175797.600,188522.600,356013.300,354231.900,179223.100,185120.100,147051.800,182842.000,0.000
175797.600,188522.600,356013.300,354231.900,179223.100,185120.100,147051.800,182842.000,0.000
175797.600,188522.600,356013.300,354231.900,179223.100,185120.100,147051.800,182842.000,0.000
175797.600,188522.600,356013.300,354231.900,179223.100,185120.100,147051.800,182842.000,0.000
175797.600,188522.600,356013.300,354231.900,179223.100,185120.100,147051.800,182842.000,0.000
175797.600,188522.600,356013.300,354231.900,179223.100,185120.100,147051.800,182842.000,0.000
175797.600,188522.600,356013.300,354231.900,179223.100,185120.100,147051.800,182842.000,0.000
175797.600,188522.600,356013.300,354231.900,179223.100,185120.100,147051.800,182842.000,0.000
175797.600,188522.600,356013.300,354231.900,179223.100,185120.100,147051.800,182842.000,0.000
175797.600,188522.600,356013.300,354231.900,179223.100,185120.100,147051.800,182842.000,0.000
175797.600,188522.600,356013.300,354231.900,179223.100,185120.100,147051.800,182842.000,0.000
177361.500,190058.300,354237.000,352717.100,180759.800,186664.500,148688.600,184408.200,0.000
177393.400,190101.100,354253.200,352679.400,180833.900,186707.200,148731.300,184449.200,0.000
177423.600,190138.000,354221.300,352624.200,180874.300,186741.000,148770.100,184484.400,0.000
177453.500,190161.400,354129.300,352583.600,180865.300,186765.500,148798.300,184496.400,0.000
177484.400,190179.800,354047.300,352563.900,180852.400,186786.800,148824.100,184517.100,0.000
177527.500,190218.100,354050.400,352555.700,180899.700,186819.400,148858.800,184557.000,0.000
177564.800,190265.300,354074.700,352523.100,180980.100,186857.900,148900.600,184613.700,0.000
177592.700,190305.500,354046.800,352471.800,181026.300,186893.300,148935.800,184647.900,0.000
177616.600,190326.000,353953.800,352429.000,181016.800,186911.500,148954.100,184651.100,0.000
177645.400,190344.000,353868.900,352410.000,181004.800,186933.100,148979.800,184666.400,0.000
177676.200,190372.900,353858.400,352393.500,181043.600,186964.000,149015.000,184705.500,0.000
177705.900,190415.100,353874.600,352356.300,181103.600,187001.200,149050.500,184748.100,0.000
177705.900,190415.100,353874.600,352356.300,181103.600,187001.200,149050.500,184748.100,0.000
177705.900,190415.100,353874.600,352356.300,181103.600,187001.200,149050.500,184748.100,0.000
177705.900,190415.100,353874.600,352356.300,181103.600,187001.200,149050.500,184748.100,0.000
177705.900,190415.100,353874.600,352356.300,181103.600,187001.200,149050.500,184748.100,0.000
177705.900,190415.100,353874.600,352356.300,181103.600,187001.200,149050.500,184748.100,0.000
177705.900,190415.100,353874.600,352356.300,181103.600,187001.200,149050.500,184748.100,0.000
177705.900,190415.100,353874.600,352356.300,181103.600,187001.200,149050.500,184748.100,0.000
177705.900,190415.100,353874.600,352356.300,181103.600,187001.200,149050.500,184748.100,0.000
177964.300,190662.100,353486.300,352085.200,181318.300,187258.500,149313.100,184987.400,0.000
177998.000,190701.800,353505.700,352050.100,181390.900,187297.000,149349.100,185033.700,0.000
178022.200,190729.300,353474.500,351998.100,181435.500,187327.600,149381.500,185062.100,0.000
178053.100,190751.800,353398.200,351965.300,181436.400,187350.800,149404.300,185073.300,0.000
178082.300,190770.300,353333.000,351952.700,181432.300,187370.800,149429.700,185087.600,0.000
178113.600,190802.700,353340.500,351946.000,181478.400,187401.800,149462.800,185133.600,0.000
178142.000,190842.500,353362.900,351910.400,181553.200,187437.800,149496.400,185177.800,0.000
178160.500,190868.300,353320.600,351850.700,181593.500,187462.900,149517.600,185194.700,0.000
178181.800,190881.000,353222.300,351809.200,181583.400,187473.200,149533.600,185197.700,0.000
178211.700,190895.000,353145.000,351796.100,181574.400,187494.200,149558.100,185216.900,0.000
178248.800,190925.000,353148.100,351794.300,181616.700,187529.400,149598.100,185272.900,0.000
178271.100,190954.800,353163.300,351748.400,181668.600,187557.700,149614.500,185291.600,0.000
178295.000,190985.300,353133.700,351692.200,181706.800,187582.800,149639.800,185313.900,0.000
178315.300,190997.500,353048.000,351656.000,181705.000,187597.600,149662.400,185324.800,0.000
178337.800,191007.600,352969.200,351644.500,181694.600,187611.900,149681.900,185340.300,0.000
178365.200,191032.100,352966.800,351637.600,181738.100,187641.200,149710.800,185373.800,0.000
178391.900,191071.800,352989.800,351605.800,181818.700,187681.400,149748.400,185422.700,0.000
178415.900,191105.500,352964.600,351554.800,181865.300,187716.100,149774.500,185441.400,0.000
178435.400,191116.300,352875.100,351512.000,181850.000,187726.400,149791.000,185450.900,0.000
178456.000,191121.800,352794.000,351487.800,181825.100,187732.600,149803.100,185455.800,0.000
178483.300,191148.000,352793.300,351476.400,181860.200,187759.400,149831.600,185487.700,0.000
178483.300,191148.000,352793.300,351476.400,181860.200,187759.400,149831.600,185487.700,0.000
178483.300,191148.000,352793.300,351476.400,181860.200,187759.400,149831.600,185487.700,0.000
178483.300,191148.000,352793.300,351476.400,181860.200,187759.400,149831.600,185487.700,0.000
178483.300,191148.000,352793.300,351476.400,181860.200,187759.400,149831.600,185487.700,0.000
178483.300,191148.000,352793.300,351476.400,181860.200,187759.400,149831.600,185487.700,0.000
178483.300,191148.000,352793.300,351476.400,181860.200,187759.400,149831.600,185487.700,0.000
178483.300,191148.000,352793.300,351476.400,181860.200,187759.400,149831.600,185487.700,0.000
178483.300,191148.000,352793.300,351476.400,181860.200,187759.400,149831.600,185487.700,0.000
178483.300,191148.000,352793.300,351476.400,181860.200,187759.400,149831.600,185487.700,0.000
178483.300,191148.000,352793.300,351476.400,181860.200,187759.400,149831.600,185487.700,0.000
178721.700,191399.900,352435.900,351135.800,182142.000,187998.600,150076.600,185744.000,0.000
178744.900,191430.500,352414.400,351087.900,182184.500,188023.800,150096.800,185765.500,0.000
178761.000,191441.200,352327.700,351050.200,182175.600,188032.500,150108.300,185761.300,0.000
178777.900,191441.400,352246.200,351038.900,182159.300,188042.800,150126.200,185782.000,0.000
178799.000,191456.500,352235.700,351031.200,182189.000,188065.500,150148.600,185805.200,0.000
178813.600,191483.300,352247.900,350988.800,182246.400,188091.100,150170.200,185837.200,0.000
178832.300,191511.400,352216.200,350936.200,182286.400,188116.000,150191.500,185861.100,0.000
178849.800,191524.200,352130.100,350899.500,182278.100,188131.700,150209.800,185863.400,0.000
178871.700,191536.000,352056.100,350888.300,182262.600,188143.500,150227.300,185880.300,0.000
178898.200,191564.700,352057.500,350880.500,182297.400,188172.300,150252.000,185917.900,0.000
178919.400,191596.800,352076.000,350842.200,182364.200,188205.100,150286.400,185952.800,0.000
178942.000,191620.400,352050.100,350788.400,182398.600,188226.400,150302.900,185964.900,0.000
178960.500,191627.400,351964.500,350744.300,182375.600,188235.500,150307.000,185955.000,0.000
178985.100,191634.700,351893.700,350734.000,182358.600,188248.300,150326.500,185967.300,0.000
179015.800,191663.400,351903.100,350734.900,182408.000,188279.100,150360.300,186012.700,0.000
179032.700,191689.300,351921.800,350701.200,182470.500,188307.500,150391.000,186055.300,0.000
179043.500,191705.600,351888.600,350648.600,182503.400,188324.700,150407.700,186065.400,0.000
179061.000,191715.500,351801.800,350612.400,182491.500,188339.900,150416.900,186057.400,0.000
179073.900,191713.000,351717.500,350600.400,182464.900,188349.000,150430.600,186072.500,0.000
179088.800,191726.300,351711.500,350589.300,182488.100,188360.900,150456.800,186110.600,0.000
179107.800,191761.100,351736.200,350556.100,182545.400,188394.000,150480.900,186143.500,0.000
179124.200,191789.700,351711.300,350504.800,182574.500,188418.400,150498.700,186159.400,0.000
179140.900,191801.200,351625.600,350469.700,182559.200,188430.200,150520.100,186173.200,0.000
179157.100,191803.800,351542.000,350451.100,182536.300,188435.100,150528.800,186176.600,0.000
179157.100,191803.800,351542.000,350451.100,182536.300,188435.100,150528.800,186176.600,0.000
179157.100,191803.800,351542.000,350451.100,182536.300,188435.100,150528.800,186176.600,0.000
179157.100,191803.800,351542.000,350451.100,182536.300,188435.100,150528.800,186176.600,0.000
179157.100,191803.800,351542.000,350451.100,182536.300,188435.100,150528.800,186176.600,0.000
179157.100,191803.800,351542.000,350451.100,182536.300,188435.100,150528.800,186176.600,0.000
179286.400,191922.700,351392.200,350296.500,182667.100,188546.300,150632.300,186282.900,0.000
179309.200,191954.200,351417.800,350264.900,182737.400,188577.800,150659.800,186322.500,0.000
179320.500,191974.500,351383.200,350213.300,182770.400,188599.400,150678.600,186335.700,0.000
179339.300,191984.600,351297.800,350183.100,182758.000,188611.500,150693.300,186347.100,0.000
179355.500,191984.200,351217.300,350162.600,182730.700,188614.800,150704.000,186344.600,0.000
179381.600,192003.700,351220.200,350151.900,182757.800,188634.100,150724.200,186372.800,0.000
179408.200,192037.900,351253.000,350124.300,182817.500,188664.300,150752.300,186414.800,0.000
179424.300,192061.100,351227.100,350074.700,182844.600,188683.100,150768.300,186425.700,0.000
179430.900,192063.400,351137.300,350034.100,182821.200,188688.600,150775.100,186421.400,0.000
179449.700,192071.100,351061.000,350026.900,182805.400,188698.000,150786.500,186435.500,0.000
179467.800,192088.000,351054.600,350017.000,182838.800,188713.800,150802.600,186457.400,0.000
179477.400,192111.400,351073.100,349981.700,182895.800,188739.800,150826.800,186490.200,0.000
179485.300,192128.700,351042.100,349926.200,182922.700,188757.400,150844.800,186506.800,0.000
179493.200,192127.000,350952.600,349884.500,182903.300,188758.500,150850.800,186501.400,0.000
179502.300,192119.200,350864.800,349863.400,182877.300,188757.600,150847.900,186493.000,0.000
179502.300,192119.200,350864.800,349863.400,182877.300,188757.600,150847.900,186493.000,0.000
179502.300,192119.200,350864.800,349863.400,182877.300,188757.600,150847.900,186493.000,0.000
179502.300,192119.200,350864.800,349863.400,182877.300,188757.600,150847.900,186493.000,0.000
179502.300,192119.200,350864.800,349863.400,182877.300,188757.600,150847.900,186493.000,0.000
179502.300,192119.200,350864.800,349863.400,182877.300,188757.600,150847.900,186493.000,0.000
179502.300,192119.200,350864.800,349863.400,182877.300,188757.600,150847.900,186493.000,0.000
179502.300,192119.200,350864.800,349863.400,182877.300,188757.600,150847.900,186493.000,0.000
179502.300,192119.200,350864.800,349863.400,182877.300,188757.600,150847.900,186493.000,0.000
179502.300,192119.200,350864.800,349863.400,182877.300,188757.600,150847.900,186493.000,0.000
179502.300,192119.200,350864.800,349863.400,182877.300,188757.600,150847.900,186493.000,0.000
179502.300,192119.200,350864.800,349863.400,182877.300,188757.600,150847.900,186493.000,0.000
179502.300,192119.200,350864.800,349863.400,182877.300,188757.600,150847.900,186493.000,0.000
179502.300,192119.200,350864.800,349863.400,182877.300,188757.600,150847.900,186493.000,0.000
179502.300,192119.200,350864.800,349863.400,182877.300,188757.600,150847.900,186493.000,0.000
179502.300,192119.200,350864.800,349863.400,182877.300,188757.600,150847.900,186493.000,0.000
179502.300,192119.200,350864.800,349863.400,182877.300,188757.600,150847.900,186493.000,0.000
179502.300,192119.200,350864.800,349863.400,182877.300,188757.600,150847.900,186493.000,0.000
179502.300,192119.200,350864.800,349863.400,182877.300,188757.600,150847.900,186493.000,0.000
179502.300,192119.200,350864.800,349863.400,182877.300,188757.600,150847.900,186493.000,0.000
179502.300,192119.200,350864.800,349863.400,182877.300,188757.600,150847.900,186493.000,0.000
179502.300,192119.200,350864.800,349863.400,182877.300,188757.600,150847.900,186493.000,0.000
179502.300,192119.200,350864.800,349863.400,182877.300,188757.600,150847.900,186493.000,0.000
179502.300,192119.200,350864.800,349863.400,182877.300,188757.600,150847.900,186493.000,0.000
179502.300,192119.200,350864.800,349863.400,182877.300,188757.600,150847.900,186493.000,0.000
179502.300,192119.200,350864.800,349863.400,182877.300,188757.600,150847.900,186493.000,0.000
179502.300,192119.200,350864.800,349863.400,182877.300,188757.600,150847.900,186493.000,0.000
179502.300,192119.200,350864.800,349863.400,182877.300,188757.600,150847.900,186493.000,0.000
179502.300,192119.200,350864.800,349863.400,182877.300,188757.600,150847.900,186493.000,0.000
179502.300,192119.200,350864.800,349863.400,182877.300,188757.600,150847.900,186493.000,0.000
179502.300,192119.200,350864.800,349863.400,182877.300,188757.600,150847.900,186493.000,0.000
179502.300,192119.200,350864.800,349863.400,182877.300,188757.600,150847.900,186493.000,0.000
179502.300,192119.200,350864.800,349863.400,182877.300,188757.600,150847.900,186493.000,0.000
179502.300,192119.200,350864.800,349863.400,182877.300,188757.600,150847.900,186493.000,0.000
179502.300,192119.200,350864.800,349863.400,182877.300,188757.600,150847.900,186493.000,0.000
179502.300,192119.200,350864.800,349863.400,182877.300,188757.600,150847.900,186493.000,0.000
179502.300,192119.200,350864.800,349863.400,182877.300,188757.600,150847.900,186493.000,0.000
179502.300,192119.200,350864.800,349863.400,182877.300,188757.600,150847.900,186493.000,0.000
179502.300,192119.200,350864.800,349863.400,182877.300,188757.600,150847.900,186493.000,0.000
179502.300,192119.200,350864.800,349863.400,182877.300,188757.600,150847.900,186493.000,0.000
179502.300,192119.200,350864.800,349863.400,182877.300,188757.600,150847.900,186493.000,0.000
179502.300,192119.200,350864.800,349863.400,182877.300,188757.600,150847.900,186493.000,0.000
179502.300,192119.200,350864.800,349863.400,182877.300,188757.600,150847.900,186493.000,0.000
179502.300,192119.200,350864.800,349863.400,182877.300,188757.600,150847.900,186493.000,0.000
179502.300,192119.200,350864.800,349863.400,182877.300,188757.600,150847.900,186493.000,0.000
179502.300,192119.200,350864.800,349863.400,182877.300,188757.600,150847.900,186493.000,0.000
179502.300,192119.200,350864.800,349863.400,182877.300,188757.600,150847.900,186493.000,0.000
179502.300,192119.200,350864.800,349863.400,182877.300,188757.600,150847.900,186493.000,0.000
179502.300,192119.200,350864.800,349863.400,182877.300,188757.600,150847.900,186493.000,0.000
179502.300,192119.200,350864.800,349863.400,182877.300,188757.600,150847.900,186493.000,0.000
179502.300,192119.200,350864.800,349863.400,182877.300,188757.600,150847.900,186493.000,0.000
179502.300,192119.200,350864.800,349863.400,182877.300,188757.600,150847.900,186493.000,0.000
180182.600,192780.900,349231.400,348405.600,183577.600,189455.100,151576.000,187225.300,0.000
180193.300,192802.300,349207.700,348353.700,183610.600,189475.500,151590.500,187240.000,0.000
180201.000,192801.500,349126.000,348315.800,183589.400,189477.500,151590.100,187231.500,0.000
180202.700,192785.300,349044.600,348297.200,183540.600,189463.100,151588.300,187224.900,0.000
180204.300,192784.100,349031.400,348282.200,183547.200,189463.000,151590.700,187241.900,0.000
180226.700,192815.200,349062.500,348263.600,183611.000,189490.100,151613.000,187275.500,0.000
180235.000,192835.800,349036.000,348220.100,183643.100,189508.700,151623.800,187287.300,0.000
180232.900,192831.000,348946.300,348172.300,183618.400,189508.600,151620.700,187267.200,0.000
180247.100,192829.900,348877.200,348159.600,183590.600,189508.000,151627.500,187267.900,0.000
180259.200,192840.600,348877.900,348149.300,183613.300,189522.100,151641.300,187286.400,0.000
180274.500,192867.700,348904.900,348114.900,183666.900,189543.500,151655.600,187312.900,0.000
180289.700,192891.900,348887.000,348065.100,183701.600,189565.400,151671.800,187329.900,0.000
180295.600,192893.700,348800.400,348026.300,183681.400,189568.600,151673.800,187319.500,0.000
180302.700,192883.000,348716.600,348012.800,183645.700,189566.100,151680.800,187319.000,0.000
180315.500,192889.000,348713.300,348007.100,183663.300,189574.100,151691.500,187335.000,0.000
180324.800,192910.400,348739.600,347969.700,183717.800,189593.000,151707.800,187363.400,0.000
180329.800,192925.500,348714.800,347918.600,183742.400,189604.800,151716.900,187372.700,0.000
180340.600,192928.500,348635.900,347889.300,183720.100,189613.300,151728.100,187376.100,0.000
180349.300,192919.600,348558.400,347876.000,183680.400,189610.700,151732.400,187371.900,0.000
180364.300,192928.900,348556.200,347869.700,183699.900,189620.000,151746.400,187386.000,0.000
180381.500,192952.200,348583.900,347841.300,183759.500,189642.000,151766.800,187425.500,0.000
180388.700,192967.500,348561.100,347788.900,183784.900,189655.500,151775.100,187425.500,0.000
180392.500,192968.000,348481.300,347759.600,183767.900,189663.600,151789.700,187429.500,0.000
180392.800,192956.500,348397.900,347743.200,183725.200,189656.100,151777.600,187411.100,0.000
180411.600,192973.100,348399.500,347740.100,183754.500,189675.000,151798.500,187437.500,0.000
180423.500,192997.800,348426.600,347707.900,183817.300,189691.100,151815.300,187466.900,0.000
180434.000,193022.000,348411.200,347667.400,183857.600,189715.300,151834.200,187494.500,0.000
180435.600,193017.500,348326.000,347622.000,183827.500,189720.800,151834.000,187469.400,0.000
180446.600,193009.000,348252.000,347608.300,183792.000,189714.900,151840.900,187462.800,0.000
180463.300,193019.800,348256.200,347602.500,183819.000,189724.400,151852.800,187488.800,0.000
180481.800,193047.500,348291.700,347573.900,183886.100,189744.300,151871.300,187522.600,0.000
180493.900,193068.900,348277.400,347529.900,183919.000,189761.800,151883.200,187533.200,0.000
180496.000,193063.700,348189.300,347492.300,183887.400,189761.000,151885.000,187523.000,0.000
180504.500,193056.000,348108.800,347480.000,183849.200,189761.500,151890.500,187519.400,0.000
180520.600,193068.900,348109.000,347480.300,183864.100,189780.500,151906.000,187547.200,0.000
180530.200,193094.800,348138.300,347448.500,183912.200,189807.300,151922.800,187573.400,0.000
180532.700,193111.600,348119.100,347395.200,183940.700,189807.500,151936.000,187587.100,0.000
180538.300,193115.500,348042.500,347359.300,183922.500,189815.300,151937.400,187579.300,0.000
180550.100,193112.400,347970.400,347348.600,183898.400,189817.800,151946.800,187572.600,0.000
180564.800,193124.100,347969.300,347346.100,183923.900,189834.400,151960.400,187598.100,0.000
180576.600,193148.000,347996.500,347313.800,183980.600,189854.100,151969.700,187616.000,0.000
180585.200,193168.300,347980.300,347267.300,184010.600,189865.700,151988.900,187630.100,0.000
180580.700,193162.800,347895.200,347228.000,183980.400,189867.000,151988.400,187623.600,0.000
180593.500,193158.100,347821.400,347219.100,183943.200,189867.300,151990.600,187620.600,0.000
180604.000,193163.800,347815.400,347210.200,183951.000,189866.700,151995.700,187632.600,0.000
180604.000,193163.800,347815.400,347210.200,183951.000,189866.700,151995.700,187632.600,0.000
180604.000,193163.800,347815.400,347210.200,183951.000,189866.700,151995.700,187632.600,0.000
180604.000,193163.800,347815.400,347210.200,183951.000,189866.700,151995.700,187632.600,0.000
180604.000,193163.800,347815.400,347210.200,183951.000,189866.700,151995.700,187632.600,0.000
180604.000,193163.800,347815.400,347210.200,183951.000,189866.700,151995.700,187632.600,0.000
180604.000,193163.800,347815.400,347210.200,183951.000,189866.700,151995.700,187632.600,0.000
180604.000,193163.800,347815.400,347210.200,183951.000,189866.700,151995.700,187632.600,0.000
180604.000,193163.800,347815.400,347210.200,183951.000,189866.700,151995.700,187632.600,0.000
180604.000,193163.800,347815.400,347210.200,183951.000,189866.700,151995.700,187632.600,0.000
180604.000,193163.800,347815.400,347210.200,183951.000,189866.700,151995.700,187632.600,0.000
180604.000,193163.800,347815.400,347210.200,183951.000,189866.700,151995.700,187632.600,0.000
180604.000,193163.800,347815.400,347210.200,183951.000,189866.700,151995.700,187632.600,0.000
180604.000,193163.800,347815.400,347210.200,183951.000,189866.700,151995.700,187632.600,0.000
180604.000,193163.800,347815.400,347210.200,183951.000,189866.700,151995.700,187632.600,0.000
180604.000,193163.800,347815.400,347210.200,183951.000,189866.700,151995.700,187632.600,0.000
180604.000,193163.800,347815.400,347210.200,183951.000,189866.700,151995.700,187632.600,0.000
180604.000,193163.800,347815.400,347210.200,183951.000,189866.700,151995.700,187632.600,0.000
180604.000,193163.800,347815.400,347210.200,183951.000,189866.700,151995.700,187632.600,0.000
180604.000,193163.800,347815.400,347210.200,183951.000,189866.700,151995.700,187632.600,0.000
180604.000,193163.800,347815.400,347210.200,183951.000,189866.700,151995.700,187632.600,0.000
180790.100,193371.200,347253.200,346658.200,184193.900,190066.000,152193.000,187841.300,0.000
180795.000,193387.800,347233.800,346614.700,184225.500,190085.800,152204.800,187855.300,0.000
180793.300,193381.200,347150.800,346577.100,184196.100,190080.500,152205.900,187846.300,0.000
180798.000,193371.100,347074.000,346564.200,184150.800,190072.600,152205.500,187831.400,0.000
180813.000,193381.000,347073.200,346559.500,184164.600,190080.000,152217.100,187857.300,0.000
180820.300,193397.900,347097.000,346524.300,184213.200,190089.600,152225.500,187885.100,0.000
180817.000,193410.600,347073.100,346470.800,184238.400,190100.800,152225.000,187875.700,0.000
180817.500,193412.200,346992.400,346432.000,184215.800,190100.400,152227.300,187861.800,0.000
180822.800,193410.000,346924.200,346426.900,184179.100,190099.500,152232.600,187864.200,0.000
180831.500,193419.000,346927.600,346422.600,184194.700,190107.200,152238.500,187876.300,0.000
180847.500,193443.700,346963.200,346392.700,184253.000,190129.100,152253.800,187901.900,0.000
180854.600,193460.100,346943.900,346345.600,184284.900,190140.800,152268.100,187916.800,0.000
180854.600,193460.100,346943.900,346345.600,184284.900,190140.800,152268.100,187916.800,0.000
180854.600,193460.100,346943.900,346345.600,184284.900,190140.800,152268.100,187916.800,0.000
180854.600,193460.100,346943.900,346345.600,184284.900,190140.800,152268.100,187916.800,0.000
180854.600,193460.100,346943.900,346345.600,184284.900,190140.800,152268.100,187916.800,0.000
180854.600,193460.100,346943.900,346345.600,184284.900,190140.800,152268.100,187916.800,0.000
180854.600,193460.100,346943.900,346345.600,184284.900,190140.800,152268.100,187916.800,0.000
180854.600,193460.100,346943.900,346345.600,184284.900,190140.800,152268.100,187916.800,0.000
180854.600,193460.100,346943.900,346345.600,184284.900,190140.800,152268.100,187916.800,0.000
180854.600,193460.100,346943.900,346345.600,184284.900,190140.800,152268.100,187916.800,0.000
180854.600,193460.100,346943.900,346345.600,184284.900,190140.800,152268.100,187916.800,0.000
180854.600,193460.100,346943.900,346345.600,184284.900,190140.800,152268.100,187916.800,0.000
180854.600,193460.100,346943.900,346345.600,184284.900,190140.800,152268.100,187916.800,0.000
180854.600,193460.100,346943.900,346345.600,184284.900,190140.800,152268.100,187916.800,0.000
180854.600,193460.100,346943.900,346345.600,184284.900,190140.800,152268.100,187916.800,0.000
180854.600,193460.100,346943.900,346345.600,184284.900,190140.800,152268.100,187916.800,0.000
180854.600,193460.100,346943.900,346345.600,184284.900,190140.800,152268.100,187916.800,0.000
180854.600,193460.100,346943.900,346345.600,184284.900,190140.800,152268.100,187916.800,0.000
180854.600,193460.100,346943.900,346345.600,184284.900,190140.800,152268.100,187916.800,0.000
180854.600,193460.100,346943.900,346345.600,184284.900,190140.800,152268.100,187916.800,0.000
180854.600,193460.100,346943.900,346345.600,184284.900,190140.800,152268.100,187916.800,0.000
180854.600,193460.100,346943.900,346345.600,184284.900,190140.800,152268.100,187916.800,0.000
180996.700,193616.500,346214.200,345803.900,184385.100,190281.700,152414.400,188050.400,0.000
181006.200,193618.300,346206.200,345797.100,184394.300,190286.100,152419.900,188066.900,0.000
181015.900,193639.500,346229.300,345768.600,184448.100,190305.400,152436.500,188086.600,0.000
181022.700,193659.500,346211.900,345720.100,184475.300,190318.000,152443.800,188095.600,0.000
181020.400,193655.100,346128.900,345681.800,184442.000,190314.200,152442.600,188085.300,0.000
181024.900,193643.200,346051.600,345668.500,184399.300,190309.100,152442.500,188075.900,0.000
181037.800,193648.900,346052.200,345664.800,184413.800,190315.900,152450.300,188093.300,0.000
181048.500,193669.600,346083.200,345635.000,184464.400,190329.400,152460.900,188115.400,0.000
181054.000,193687.800,346068.500,345585.100,184493.600,190346.500,152471.400,188124.200,0.000
181058.900,193685.600,345992.300,345548.900,184464.800,190346.500,152472.300,188113.300,0.000
181068.000,193674.700,345919.700,345534.900,184423.500,190336.200,152468.100,188101.700,0.000
181084.500,193686.000,345923.100,345536.200,184449.400,190346.300,152481.500,188122.900,0.000
181091.000,193710.200,345949.700,345507.100,184506.900,190366.300,152494.900,188150.000,0.000
181088.300,193725.300,345924.500,345457.800,184537.000,190381.300,152506.100,188161.900,0.000
181085.400,193718.900,345844.400,345422.800,184506.200,190379.900,152504.300,188147.900,0.000
181090.400,193704.800,345774.000,345411.500,184459.900,190367.600,152498.000,188138.900,0.000
181109.800,193714.500,345775.500,345413.400,184471.200,190376.800,152508.200,188160.600,0.000
181109.800,193714.500,345775.500,345413.400,184471.200,190376.800,152508.200,188160.600,0.000
181109.800,193714.500,345775.500,345413.400,184471.200,190376.800,152508.200,188160.600,0.000
181109.800,193714.500,345775.500,345413.400,184471.200,190376.800,152508.200,188160.600,0.000
181109.800,193714.500,345775.500,345413.400,184471.200,190376.800,152508.200,188160.600,0.000
181109.800,193714.500,345775.500,345413.400,184471.200,190376.800,152508.200,188160.600,0.000
181109.800,193714.500,345775.500,345413.400,184471.200,190376.800,152508.200,188160.600,0.000
181109.800,193714.500,345775.500,345413.400,184471.200,190376.800,152508.200,188160.600,0.000
181109.800,193714.500,345775.500,345413.400,184471.200,190376.800,152508.200,188160.600,0.000
181109.800,193714.500,345775.500,345413.400,184471.200,190376.800,152508.200,188160.600,0.000
181109.800,193714.500,345775.500,345413.400,184471.200,190376.800,152508.200,188160.600,0.000
181162.500,193777.400,345506.300,345136.300,184567.200,190453.300,152585.800,188236.400,0.000
181173.700,193798.900,345493.700,345093.000,184599.100,190471.600,152599.500,188248.600,0.000
181176.700,193799.300,345419.200,345058.000,184576.100,190471.200,152602.600,188244.900,0.000
181188.200,193795.100,345348.200,345050.500,184539.400,190470.000,152604.800,188238.000,0.000
181195.400,193800.900,345340.700,345042.500,184547.700,190472.600,152606.200,188249.000,0.000
181197.000,193819.500,345368.700,345013.500,184594.700,190485.000,152613.100,188266.300,0.000
181202.500,193836.800,345362.400,344975.000,184627.800,190503.500,152629.000,188281.800,0.000
181202.800,193829.200,345285.800,344936.100,184599.200,190499.700,152628.700,188271.300,0.000
181209.000,193816.700,345209.500,344927.600,184558.500,190493.700,152632.100,188267.800,0.000
181226.000,193826.800,345210.100,344934.400,184579.600,190505.100,152651.300,188300.300,0.000
181237.400,193847.100,345241.000,344908.400,184626.000,190523.000,152655.800,188306.900,0.000
181242.200,193860.000,345223.500,344859.400,184648.100,190534.800,152662.300,188308.200,0.000
181242.200,193860.000,345223.500,344859.400,184648.100,190534.800,152662.300,188308.200,0.000
181242.200,193860.000,345223.500,344859.400,184648.100,190534.800,152662.300,188308.200,0.000
181242.200,193860.000,345223.500,344859.400,184648.100,190534.800,152662.300,188308.200,0.000
181242.200,193860.000,345223.500,344859.400,184648.100,190534.800,152662.300,188308.200,0.000
181242.200,193860.000,345223.500,344859.400,184648.100,190534.800,152662.300,188308.200,0.000
181242.200,193860.000,345223.500,344859.400,184648.100,190534.800,152662.300,188308.200,0.000
181242.200,193860.000,345223.500,344859.400,184648.100,190534.800,152662.300,188308.200,0.000
181242.200,193860.000,345223.500,344859.400,184648.100,190534.800,152662.300,188308.200,0.000
181242.200,193860.000,345223.500,344859.400,184648.100,190534.800,152662.300,188308.200,0.000
181242.200,193860.000,345223.500,344859.400,184648.100,190534.800,152662.300,188308.200,0.000
181242.200,193860.000,345223.500,344859.400,184648.100,190534.800,152662.300,188308.200,0.000
181242.200,193860.000,345223.500,344859.400,184648.100,190534.800,152662.300,188308.200,0.000
181242.200,193860.000,345223.500,344859.400,184648.100,190534.800,152662.300,188308.200,0.000
181242.200,193860.000,345223.500,344859.400,184648.100,190534.800,152662.300,188308.200,0.000
181242.200,193860.000,345223.500,344859.400,184648.100,190534.800,152662.300,188308.200,0.000
181242.200,193860.000,345223.500,344859.400,184648.100,190534.800,152662.300,188308.200,0.000
181242.200,193860.000,345223.500,344859.400,184648.100,190534.800,152662.300,188308.200,0.000
181242.200,193860.000,345223.500,344859.400,184648.100,190534.800,152662.300,188308.200,0.000
181242.200,193860.000,345223.500,344859.400,184648.100,190534.800,152662.300,188308.200,0.000
181242.200,193860.000,345223.500,344859.400,184648.100,190534.800,152662.300,188308.200,0.000
181242.200,193860.000,345223.500,344859.400,184648.100,190534.800,152662.300,188308.200,0.000
181242.200,193860.000,345223.500,344859.400,184648.100,190534.800,152662.300,188308.200,0.000
181242.200,193860.000,345223.500,344859.400,184648.100,190534.800,152662.300,188308.200,0.000
181242.200,193860.000,345223.500,344859.400,184648.100,190534.800,152662.300,188308.200,0.000
181242.200,193860.000,345223.500,344859.400,184648.100,190534.800,152662.300,188308.200,0.000
181242.200,193860.000,345223.500,344859.400,184648.100,190534.800,152662.300,188308.200,0.000
181380.800,193998.000,344439.800,344236.600,184718.000,190666.800,152803.200,188439.900,0.000
181399.100,194008.500,344443.600,344235.800,184727.300,190677.900,152821.400,188464.900,0.000
181408.900,194028.600,344477.600,344210.300,184771.900,190691.600,152835.300,188486.800,0.000
181412.600,194047.500,344470.300,344173.600,184795.600,190706.500,152846.800,188503.400,0.000
181412.800,194046.500,344399.500,344143.400,184766.700,190706.300,152850.900,188503.700,0.000
181411.700,194029.000,344320.100,344125.700,184718.800,190692.500,152839.500,188477.300,0.000
181413.700,194021.300,344306.500,344118.800,184722.700,190689.100,152840.600,188484.700,0.000
181429.200,194045.900,344339.500,344094.000,184775.700,190712.100,152856.000,188503.900,0.000
181435.900,194064.200,344327.800,344051.100,184805.700,190729.600,152865.700,188511.100,0.000
181434.000,194057.900,344251.100,344020.200,184777.300,190724.900,152864.500,188509.600,0.000
181437.000,194047.900,344176.800,344009.600,184734.400,190712.700,152855.000,188492.000,0.000
181453.100,194060.500,344182.700,344012.100,184750.500,190724.300,152863.900,188500.700,0.000
181467.700,194089.200,344223.100,343994.100,184810.600,190752.400,152888.600,188534.700,0.000
181474.800,194110.300,344215.700,343957.300,184844.300,190774.400,152907.000,188555.800,0.000
181496.500,194120.300,344155.200,343941.400,184830.500,190790.300,152920.300,188559.600,0.000
181578.900,194179.700,344156.700,344007.000,184862.600,190856.300,152993.900,188627.200,0.000
181626.300,194221.700,344198.000,344043.500,184911.400,190899.300,153041.600,188681.700,0.000
181558.800,194168.400,344159.100,343941.600,184891.900,190841.300,152982.000,188637.600,0.000
181534.500,194155.800,344114.900,343865.900,184895.700,190826.500,152961.000,188613.000,0.000
181553.200,194168.800,344056.700,343846.900,184889.600,190841.400,152976.600,188617.800,0.000
181565.500,194163.800,343994.100,343847.200,184857.600,190835.900,152980.200,188618.300,0.000
181572.000,194162.700,343983.600,343838.300,184862.400,190832.800,152976.800,188607.400,0.000
181574.400,194175.300,344003.800,343807.000,184906.700,190840.500,152980.800,188624.000,0.000
181571.800,194181.800,343980.200,343754.100,184928.100,190845.000,152983.200,188631.700,0.000
181577.400,194179.500,343905.000,343716.800,184902.500,190841.200,152978.800,188623.000,0.000
181583.200,194167.300,343828.900,343705.300,184866.500,190830.100,152974.500,188605.200,0.000
181593.500,194169.900,343824.400,343706.700,184889.800,190837.300,152991.300,188628.000,0.000
181601.600,194186.300,343850.500,343675.100,184941.400,190848.600,152995.800,188645.700,0.000
181603.400,194200.400,343838.400,343627.800,184974.200,190862.500,153003.200,188656.600,0.000
181597.200,194189.700,343762.300,343588.400,184939.300,190854.200,152992.700,188626.900,0.000
181598.600,194173.700,343686.800,343574.000,184886.800,190834.900,152981.200,188606.500,0.000
181614.700,194184.800,343692.600,343581.000,184902.300,190846.400,152997.600,188632.700,0.000
181614.700,194184.800,343692.600,343581.000,184902.300,190846.400,152997.600,188632.700,0.000
181614.700,194184.800,343692.600,343581.000,184902.300,190846.400,152997.600,188632.700,0.000
181614.700,194184.800,343692.600,343581.000,184902.300,190846.400,152997.600,188632.700,0.000
181614.700,194184.800,343692.600,343581.000,184902.300,190846.400,152997.600,188632.700,0.000
181614.700,194184.800,343692.600,343581.000,184902.300,190846.400,152997.600,188632.700,0.000
181614.700,194184.800,343692.600,343581.000,184902.300,190846.400,152997.600,188632.700,0.000
181614.700,194184.800,343692.600,343581.000,184902.300,190846.400,152997.600,188632.700,0.000
181614.700,194184.800,343692.600,343581.000,184902.300,190846.400,152997.600,188632.700,0.000
181628.400,194202.600,343413.800,343345.600,184917.700,190867.200,153027.700,188655.300,0.000
181627.800,194204.200,343410.300,343338.300,184923.900,190872.200,153034.300,188667.700,0.000
181620.100,194217.700,343434.400,343299.100,184967.700,190883.500,153033.700,188670.900,0.000
181617.400,194232.100,343419.100,343252.400,184991.300,190891.400,153038.000,188674.600,0.000
181616.500,194228.500,343345.100,343217.100,184960.200,190885.800,153034.300,188665.200,0.000
181609.500,194217.800,343273.200,343205.200,184914.400,190881.300,153031.700,188651.900,0.000
181606.600,194220.800,343275.600,343204.600,184926.200,190889.800,153044.500,188673.900,0.000
181610.600,194235.200,343305.800,343175.600,184973.100,190900.400,153048.800,188686.400,0.000
181612.500,194245.400,343293.100,343133.300,185007.500,190914.100,153062.100,188702.400,0.000
181613.700,194240.200,343222.500,343104.300,184984.900,190912.600,153061.100,188693.200,0.000
181613.700,194240.200,343222.500,343104.300,184984.900,190912.600,153061.100,188693.200,0.000
181613.700,194240.200,343222.500,343104.300,184984.900,190912.600,153061.100,188693.200,0.000
181613.700,194240.200,343222.500,343104.300,184984.900,190912.600,153061.100,188693.200,0.000
181613.700,194240.200,343222.500,343104.300,184984.900,190912.600,153061.100,188693.200,0.000
181613.700,194240.200,343222.500,343104.300,184984.900,190912.600,153061.100,188693.200,0.000
181613.700,194240.200,343222.500,343104.300,184984.900,190912.600,153061.100,188693.200,0.000
181613.700,194240.200,343222.500,343104.300,184984.900,190912.600,153061.100,188693.200,0.000
181613.700,194240.200,343222.500,343104.300,184984.900,190912.600,153061.100,188693.200,0.000
181613.700,194240.200,343222.500,343104.300,184984.900,190912.600,153061.100,188693.200,0.000
181613.700,194240.200,343222.500,343104.300,184984.900,190912.600,153061.100,188693.200,0.000
181613.700,194240.200,343222.500,343104.300,184984.900,190912.600,153061.100,188693.200,0.000
181613.700,194240.200,343222.500,343104.300,184984.900,190912.600,153061.100,188693.200,0.000
181613.700,194240.200,343222.500,343104.300,184984.900,190912.600,153061.100,188693.200,0.000
181613.700,194240.200,343222.500,343104.300,184984.900,190912.600,153061.100,188693.200,0.000
181613.700,194240.200,343222.500,343104.300,184984.900,190912.600,153061.100,188693.200,0.000
181613.700,194240.200,343222.500,343104.300,184984.900,190912.600,153061.100,188693.200,0.000
181613.700,194240.200,343222.500,343104.300,184984.900,190912.600,153061.100,188693.200,0.000
181613.700,194240.200,343222.500,343104.300,184984.900,190912.600,153061.100,188693.200,0.000
181613.700,194240.200,343222.500,343104.300,184984.900,190912.600,153061.100,188693.200,0.000
181613.700,194240.200,343222.500,343104.300,184984.900,190912.600,153061.100,188693.200,0.000
181613.700,194240.200,343222.500,343104.300,184984.900,190912.600,153061.100,188693.200,0.000
181613.700,194240.200,343222.500,343104.300,184984.900,190912.600,153061.100,188693.200,0.000
181727.200,194354.500,342683.600,342646.800,185059.300,191032.400,153177.900,188818.000,0.000
181729.400,194364.500,342674.100,342602.000,185079.500,191043.300,153186.300,188826.000,0.000
181723.600,194353.700,342597.400,342563.000,185045.100,191036.100,153181.300,188812.200,0.000
181726.500,194342.900,342527.500,342559.200,185004.200,191021.700,153169.400,188800.800,0.000
181737.500,194351.600,342531.800,342563.200,185025.300,191028.700,153182.500,188822.000,0.000
181747.500,194370.000,342559.400,342535.400,185076.900,191044.300,153184.600,188824.800,0.000
181747.200,194379.800,342540.800,342489.900,185106.100,191043.900,153188.000,188832.500,0.000
181749.000,194374.200,342469.100,342462.100,185083.100,191044.100,153190.300,188822.700,0.000
181750.900,194361.000,342397.300,342452.300,185035.600,191030.500,153183.100,188808.700,0.000
181754.500,194364.900,342395.900,342452.300,185042.000,191030.000,153187.500,188828.400,0.000
181755.900,194380.300,342422.800,342420.800,185090.600,191046.700,153203.700,188851.600,0.000
181751.600,194385.900,342398.400,342369.400,185116.500,191059.400,153210.600,188853.800,0.000
181751.400,194379.200,342323.800,342338.800,185094.000,191058.500,153209.400,188845.200,0.000
181753.600,194367.800,342255.200,342333.900,185054.800,191052.500,153207.600,188839.400,0.000
181755.500,194367.100,342249.800,342329.300,185060.500,191057.600,153209.900,188846.600,0.000
181763.300,194389.300,342281.300,342305.200,185113.000,191072.400,153221.200,188869.700,0.000
181758.000,194399.800,342261.100,342255.100,185134.600,191077.400,153224.300,188872.200,0.000
181758.000,194399.800,342261.100,342255.100,185134.600,191077.400,153224.300,188872.200,0.000
181758.000,194399.800,342261.100,342255.100,185134.600,191077.400,153224.300,188872.200,0.000
181758.000,194399.800,342261.100,342255.100,185134.600,191077.400,153224.300,188872.200,0.000
181758.000,194399.800,342261.100,342255.100,185134.600,191077.400,153224.300,188872.200,0.000
181758.000,194399.800,342261.100,342255.100,185134.600,191077.400,153224.300,188872.200,0.000
181758.000,194399.800,342261.100,342255.100,185134.600,191077.400,153224.300,188872.200,0.000
181758.000,194399.800,342261.100,342255.100,185134.600,191077.400,153224.300,188872.200,0.000
181758.000,194399.800,342261.100,342255.100,185134.600,191077.400,153224.300,188872.200,0.000
181758.000,194399.800,342261.100,342255.100,185134.600,191077.400,153224.300,188872.200,0.000
181758.000,194399.800,342261.100,342255.100,185134.600,191077.400,153224.300,188872.200,0.000
181758.000,194399.800,342261.100,342255.100,185134.600,191077.400,153224.300,188872.200,0.000
181758.000,194399.800,342261.100,342255.100,185134.600,191077.400,153224.300,188872.200,0.000
181758.000,194399.800,342261.100,342255.100,185134.600,191077.400,153224.300,188872.200,0.000
181758.000,194399.800,342261.100,342255.100,185134.600,191077.400,153224.300,188872.200,0.000
181758.000,194399.800,342261.100,342255.100,185134.600,191077.400,153224.300,188872.200,0.000
181758.000,194399.800,342261.100,342255.100,185134.600,191077.400,153224.300,188872.200,0.000
181758.000,194399.800,342261.100,342255.100,185134.600,191077.400,153224.300,188872.200,0.000
181758.000,194399.800,342261.100,342255.100,185134.600,191077.400,153224.300,188872.200,0.000
181758.000,194399.800,342261.100,342255.100,185134.600,191077.400,153224.300,188872.200,0.000
181758.000,194399.800,342261.100,342255.100,185134.600,191077.400,153224.300,188872.200,0.000
181758.000,194399.800,342261.100,342255.100,185134.600,191077.400,153224.300,188872.200,0.000
181758.000,194399.800,342261.100,342255.100,185134.600,191077.400,153224.300,188872.200,0.000
181758.000,194399.800,342261.100,342255.100,185134.600,191077.400,153224.300,188872.200,0.000
181898.800,194500.200,341725.500,341815.400,185224.000,191184.700,153303.300,188985.400,0.000
181897.900,194512.000,341710.500,341771.300,185254.200,191196.200,153307.800,188992.800,0.000
181894.800,194508.200,341639.300,341740.500,185226.400,191195.600,153304.200,188977.900,0.000
181898.800,194502.000,341572.600,341738.700,185181.400,191191.100,153302.000,188975.400,0.000
181913.100,194512.000,341577.500,341740.900,185189.000,191196.700,153304.000,188983.200,0.000
181923.200,194530.200,341611.700,341718.500,185238.700,191210.100,153313.600,189002.800,0.000
181923.500,194543.200,341600.800,341677.500,185270.400,191222.200,153321.900,189015.700,0.000
181929.300,194546.300,341533.400,341651.100,185247.800,191225.600,153322.600,189012.100,0.000
181932.600,194534.300,341469.000,341648.000,185204.700,191212.300,153309.100,189000.100,0.000
181941.800,194534.200,341476.000,341648.800,185210.900,191213.100,153312.600,189014.800,0.000
181947.100,194552.800,341511.600,341625.300,185259.600,191233.900,153330.400,189043.100,0.000
181947.500,194561.800,341492.000,341579.400,185280.100,191240.500,153332.100,189047.900,0.000
181956.400,194557.500,341417.600,341548.500,185241.000,191233.000,153317.300,189023.300,0.000
181971.900,194551.000,341353.300,341545.400,185191.700,191224.000,153309.400,189005.900,0.000
181983.700,194554.300,341357.800,341545.900,185196.800,191226.400,153312.900,189014.500,0.000
181998.500,194570.900,341391.300,341523.800,185246.100,191243.700,153321.900,189037.900,0.000
182004.000,194583.400,341378.800,341479.500,185275.300,191252.100,153325.900,189042.800,0.000
182006.400,194579.900,341312.400,341450.700,185250.200,191248.700,153324.600,189034.600,0.000
182014.700,194573.300,341242.700,341446.500,185214.300,191244.400,153323.200,189025.900,0.000
182029.400,194584.200,341229.000,341450.900,185229.900,191259.000,153333.700,189050.700,0.000
182034.200,194601.400,341244.800,341424.300,185280.000,191272.600,153346.500,189064.800,0.000
182034.300,194611.600,341230.200,341382.100,185306.300,191282.900,153358.300,189077.500,0.000
182029.800,194599.600,341157.000,341344.300,185271.700,191269.700,153344.100,189047.000,0.000
182036.400,194588.900,341089.300,341338.100,185236.300,191265.900,153341.600,189035.900,0.000
182039.100,194586.000,341083.400,341333.500,185239.000,191268.400,153340.000,189045.900,0.000
182043.000,194603.600,341116.300,341311.900,185284.200,191278.700,153349.600,189060.900,0.000
182032.000,194616.400,341106.500,341273.000,185314.600,191288.300,153364.500,189075.300,0.000
182023.600,194600.700,341031.100,341236.500,185274.900,191273.000,153350.500,189052.000,0.000
182033.900,194586.800,340963.300,341228.800,185224.300,191258.600,153343.400,189040.700,0.000
182048.600,194592.900,340970.300,341230.000,185231.000,191261.100,153350.100,189052.700,0.000
182052.500,194609.300,340999.300,341207.800,185275.400,191273.000,153358.500,189074.600,0.000
182045.500,194623.300,340982.800,341161.200,185301.600,191283.000,153359.000,189081.800,0.000
182042.500,194619.200,340915.800,341130.500,185278.200,191279.800,153352.000,189073.400,0.000
182046.800,194605.300,340850.700,341124.500,185236.400,191269.200,153340.100,189056.700,0.000
182054.200,194604.500,340852.600,341122.900,185243.000,191265.100,153337.700,189067.300,0.000
182056.600,194620.100,340881.500,341100.100,185289.200,191278.100,153339.800,189079.600,0.000
182050.900,194631.600,340866.700,341053.900,185314.700,191291.000,153343.500,189087.500,0.000
182029.000,194615.700,340785.300,341011.300,185281.000,191274.000,153331.100,189069.400,0.000
182024.700,194604.100,340715.800,341004.300,185238.100,191264.800,153322.300,189052.000,0.000
182035.100,194608.500,340720.000,341008.000,185252.800,191271.600,153330.100,189067.300,0.000
182052.800,194634.800,340760.700,340993.800,185316.000,191294.000,153350.900,189107.800,0.000
182043.900,194642.000,340746.300,340941.500,185340.000,191301.300,153351.700,189100.300,0.000
182033.100,194629.000,340670.900,340902.900,185302.100,191290.500,153332.500,189073.300,0.000
182036.300,194619.200,340603.300,340901.500,185261.500,191283.000,153329.300,189071.400,0.000
182039.000,194620.800,340602.900,340898.600,185267.500,191284.300,153329.700,189076.700,0.000
182039.000,194620.800,340602.900,340898.600,185267.500,191284.300,153329.700,189076.700,0.000
182039.000,194620.800,340602.900,340898.600,185267.500,191284.300,153329.700,189076.700,0.000
182039.000,194620.800,340602.900,340898.600,185267.500,191284.300,153329.700,189076.700,0.000
182039.000,194620.800,340602.900,340898.600,185267.500,191284.300,153329.700,189076.700,0.000
182039.000,194620.800,340602.900,340898.600,185267.500,191284.300,153329.700,189076.700,0.000
182039.000,194620.800,340602.900,340898.600,185267.500,191284.300,153329.700,189076.700,0.000
182039.000,194620.800,340602.900,340898.600,185267.500,191284.300,153329.700,189076.700,0.000
182039.000,194620.800,340602.900,340898.600,185267.500,191284.300,153329.700,189076.700,0.000
182039.000,194620.800,340602.900,340898.600,185267.500,191284.300,153329.700,189076.700,0.000
182039.000,194620.800,340602.900,340898.600,185267.500,191284.300,153329.700,189076.700,0.000
182039.000,194620.800,340602.900,340898.600,185267.500,191284.300,153329.700,189076.700,0.000
182031.800,194668.200,340391.700,340621.800,185368.000,191325.700,153397.300,189130.000,0.000
182022.800,194654.800,340320.300,340585.400,185336.700,191317.000,153394.900,189117.300,0.000
182032.500,194643.300,340254.700,340580.700,185289.500,191303.500,153387.200,189103.300,0.000
182037.300,194639.300,340248.900,340580.000,185289.100,191299.900,153394.800,189116.000,0.000
182051.000,194664.400,340287.300,340565.000,185346.800,191322.500,153418.300,189142.300,0.000
182048.500,194677.300,340274.800,340518.600,185370.800,191330.000,153419.300,189129.800,0.000
182052.400,194681.100,340218.300,340495.500,185349.400,191331.700,153423.200,189130.500,0.000
182054.400,194668.000,340157.500,340490.800,185310.100,191322.700,153419.600,189123.500,0.000
182060.900,194665.600,340160.000,340488.400,185321.500,191324.500,153411.000,189119.600,0.000
182069.300,194684.900,340194.200,340466.500,185377.900,191347.100,153420.900,189143.000,0.000
182068.200,194693.600,340183.200,340423.900,185408.600,191355.400,153418.100,189162.800,0.000
182071.100,194690.200,340120.900,340399.100,185383.300,191357.200,153402.600,189155.900,0.000
182069.500,194673.700,340052.000,340391.300,185328.900,191349.200,153397.300,189131.100,0.000
182075.000,194675.200,340055.800,340396.600,185332.500,191355.400,153406.000,189156.800,0.000
182084.200,194696.300,340092.200,340377.600,185386.500,191373.600,153414.900,189185.300,0.000
182085.200,194712.800,340082.300,340336.400,185416.300,191383.000,153411.500,189194.200,0.000
182081.000,194704.200,340011.300,340302.000,185382.200,191374.600,153403.300,189183.100,0.000
182080.700,194682.900,339940.600,340296.600,185329.200,191358.300,153404.800,189165.600,0.000
182079.900,194674.600,339931.800,340297.200,185326.600,191352.900,153424.000,189172.500,0.000
182087.700,194690.500,339961.800,340275.900,185372.300,191367.600,153449.800,189195.700,0.000
182086.400,194701.000,339949.000,340231.800,185404.800,191382.700,153466.500,189204.300,0.000
182079.200,194695.600,339881.800,340200.400,185378.400,191383.800,153468.700,189190.800,0.000
182085.700,194691.200,339824.600,340205.100,185344.600,191378.000,153469.600,189183.900,0.000
182090.800,194700.200,339830.800,340211.300,185359.500,191386.500,153484.300,189198.500,0.000
182085.700,194711.200,339855.000,340180.300,185403.200,191400.000,153493.000,189215.200,0.000
182076.500,194714.500,339835.400,340131.300,185422.900,191405.200,153502.000,189226.400,0.000
182070.000,194706.800,339765.600,340100.500,185397.100,191400.800,153499.400,189214.000,0.000
182070.000,194706.800,339765.600,340100.500,185397.100,191400.800,153499.400,189214.000,0.000
182070.000,194706.800,339765.600,340100.500,185397.100,191400.800,153499.400,189214.000,0.000
182070.000,194706.800,339765.600,340100.500,185397.100,191400.800,153499.400,189214.000,0.000
182070.000,194706.800,339765.600,340100.500,185397.100,191400.800,153499.400,189214.000,0.000
182070.000,194706.800,339765.600,340100.500,185397.100,191400.800,153499.400,189214.000,0.000
182070.000,194706.800,339765.600,340100.500,185397.100,191400.800,153499.400,189214.000,0.000
182070.000,194706.800,339765.600,340100.500,185397.100,191400.800,153499.400,189214.000,0.000
182070.000,194706.800,339765.600,340100.500,185397.100,191400.800,153499.400,189214.000,0.000
182070.000,194706.800,339765.600,340100.500,185397.100,191400.800,153499.400,189214.000,0.000
182121.200,194744.200,339568.000,339919.900,185441.800,191441.900,153541.500,189241.800,0.000
182123.500,194726.400,339501.400,339910.900,185383.900,191425.600,153533.500,189223.300,0.000
182140.100,194734.100,339506.400,339920.400,185392.300,191432.700,153543.400,189240.300,0.000
182146.500,194754.000,339538.600,339901.400,185443.300,191449.500,153559.400,189268.100,0.000
182139.300,194764.100,339523.200,339857.500,185468.300,191458.400,153564.200,189272.900,0.000
182079.300,194764.400,339459.800,339827.100,185443.400,191456.700,153564.500,189259.700,0.000
181893.500,194758.200,339398.100,339820.100,185400.600,191447.300,153561.000,189249.900,0.000
181761.300,194762.900,339403.500,339825.100,185407.400,191448.900,153563.500,189263.200,0.000
181686.600,194773.600,339428.400,339798.400,185441.800,191455.100,153569.500,189284.100,0.000
181665.100,194782.300,339410.900,339750.900,185452.700,191461.100,153564.900,189263.500,0.000
181731.400,194777.400,339345.600,339724.600,185423.200,191463.400,153561.300,189256.700,0.000
181812.900,194765.300,339284.300,339725.900,185379.800,191452.700,153558.100,189254.800,0.000
181812.900,194765.300,339284.300,339725.900,185379.800,191452.700,153558.100,189254.800,0.000
181812.900,194765.300,339284.300,339725.900,185379.800,191452.700,153558.100,189254.800,0.000
181812.900,194765.300,339284.300,339725.900,185379.800,191452.700,153558.100,189254.800,0.000
181812.900,194765.300,339284.300,339725.900,185379.800,191452.700,153558.100,189254.800,0.000
181812.900,194765.300,339284.300,339725.900,185379.800,191452.700,153558.100,189254.800,0.000
181812.900,194765.300,339284.300,339725.900,185379.800,191452.700,153558.100,189254.800,0.000
181812.900,194765.300,339284.300,339725.900,185379.800,191452.700,153558.100,189254.800,0.000
181812.900,194765.300,339284.300,339725.900,185379.800,191452.700,153558.100,189254.800,0.000
181812.900,194765.300,339284.300,339725.900,185379.800,191452.700,153558.100,189254.800,0.000
181812.900,194765.300,339284.300,339725.900,185379.800,191452.700,153558.100,189254.800,0.000
181812.900,194765.300,339284.300,339725.900,185379.800,191452.700,153558.100,189254.800,0.000
181812.900,194765.300,339284.300,339725.900,185379.800,191452.700,153558.100,189254.800,0.000
181812.900,194765.300,339284.300,339725.900,185379.800,191452.700,153558.100,189254.800,0.000
181812.900,194765.300,339284.300,339725.900,185379.800,191452.700,153558.100,189254.800,0.000
181812.900,194765.300,339284.300,339725.900,185379.800,191452.700,153558.100,189254.800,0.000
181812.900,194765.300,339284.300,339725.900,185379.800,191452.700,153558.100,189254.800,0.000
181812.900,194765.300,339284.300,339725.900,185379.800,191452.700,153558.100,189254.800,0.000
181812.900,194765.300,339284.300,339725.900,185379.800,191452.700,153558.100,189254.800,0.000
181812.900,194765.300,339284.300,339725.900,185379.800,191452.700,153558.100,189254.800,0.000
181812.900,194765.300,339284.300,339725.900,185379.800,191452.700,153558.100,189254.800,0.000
181812.900,194765.300,339284.300,339725.900,185379.800,191452.700,153558.100,189254.800,0.000
181812.900,194765.300,339284.300,339725.900,185379.800,191452.700,153558.100,189254.800,0.000
181812.900,194765.300,339284.300,339725.900,185379.800,191452.700,153558.100,189254.800,0.000
181812.900,194765.300,339284.300,339725.900,185379.800,191452.700,153558.100,189254.800,0.000
181812.900,194765.300,339284.300,339725.900,185379.800,191452.700,153558.100,189254.800,0.000
181812.900,194765.300,339284.300,339725.900,185379.800,191452.700,153558.100,189254.800,0.000
181812.900,194765.300,339284.300,339725.900,185379.800,191452.700,153558.100,189254.800,0.000
181812.900,194765.300,339284.300,339725.900,185379.800,191452.700,153558.100,189254.800,0.000
181812.900,194765.300,339284.300,339725.900,185379.800,191452.700,153558.100,189254.800,0.000
181812.900,194765.300,339284.300,339725.900,185379.800,191452.700,153558.100,189254.800,0.000
181812.900,194765.300,339284.300,339725.900,185379.800,191452.700,153558.100,189254.800,0.000
181812.900,194765.300,339284.300,339725.900,185379.800,191452.700,153558.100,189254.800,0.000
181812.900,194765.300,339284.300,339725.900,185379.800,191452.700,153558.100,189254.800,0.000
181812.900,194765.300,339284.300,339725.900,185379.800,191452.700,153558.100,189254.800,0.000
181812.900,194765.300,339284.300,339725.900,185379.800,191452.700,153558.100,189254.800,0.000
181812.900,194765.300,339284.300,339725.900,185379.800,191452.700,153558.100,189254.800,0.000
181812.900,194765.300,339284.300,339725.900,185379.800,191452.700,153558.100,189254.800,0.000
181812.900,194765.300,339284.300,339725.900,185379.800,191452.700,153558.100,189254.800,0.000
181812.900,194765.300,339284.300,339725.900,185379.800,191452.700,153558.100,189254.800,0.000
181812.900,194765.300,339284.300,339725.900,185379.800,191452.700,153558.100,189254.800,0.000
181812.900,194765.300,339284.300,339725.900,185379.800,191452.700,153558.100,189254.800,0.000
181812.900,194765.300,339284.300,339725.900,185379.800,191452.700,153558.100,189254.800,0.000
181812.900,194765.300,339284.300,339725.900,185379.800,191452.700,153558.100,189254.800,0.000
181812.900,194765.300,339284.300,339725.900,185379.800,191452.700,153558.100,189254.800,0.000
181812.900,194765.300,339284.300,339725.900,185379.800,191452.700,153558.100,189254.800,0.000
181812.900,194765.300,339284.300,339725.900,185379.800,191452.700,153558.100,189254.800,0.000
181812.900,194765.300,339284.300,339725.900,185379.800,191452.700,153558.100,189254.800,0.000
181812.900,194765.300,339284.300,339725.900,185379.800,191452.700,153558.100,189254.800,0.000
181812.900,194765.300,339284.300,339725.900,185379.800,191452.700,153558.100,189254.800,0.000
181812.900,194765.300,339284.300,339725.900,185379.800,191452.700,153558.100,189254.800,0.000
181812.900,194765.300,339284.300,339725.900,185379.800,191452.700,153558.100,189254.800,0.000
181812.900,194765.300,339284.300,339725.900,185379.800,191452.700,153558.100,189254.800,0.000
181812.900,194765.300,339284.300,339725.900,185379.800,191452.700,153558.100,189254.800,0.000
181812.900,194765.300,339284.300,339725.900,185379.800,191452.700,153558.100,189254.800,0.000
181812.900,194765.300,339284.300,339725.900,185379.800,191452.700,153558.100,189254.800,0.000
181812.900,194765.300,339284.300,339725.900,185379.800,191452.700,153558.100,189254.800,0.000
181812.900,194765.300,339284.300,339725.900,185379.800,191452.700,153558.100,189254.800,0.000
181812.900,194765.300,339284.300,339725.900,185379.800,191452.700,153558.100,189254.800,0.000
181812.900,194765.300,339284.300,339725.900,185379.800,191452.700,153558.100,189254.800,0.000
181812.900,194765.300,339284.300,339725.900,185379.800,191452.700,153558.100,189254.800,0.000
181812.900,194765.300,339284.300,339725.900,185379.800,191452.700,153558.100,189254.800,0.000
181812.900,194765.300,339284.300,339725.900,185379.800,191452.700,153558.100,189254.800,0.000
181812.900,194765.300,339284.300,339725.900,185379.800,191452.700,153558.100,189254.800,0.000
181812.900,194765.300,339284.300,339725.900,185379.800,191452.700,153558.100,189254.800,0.000
181812.900,194765.300,339284.300,339725.900,185379.800,191452.700,153558.100,189254.800,0.000
181812.900,194765.300,339284.300,339725.900,185379.800,191452.700,153558.100,189254.800,0.000
182312.500,194950.800,338037.400,338551.000,185612.200,191637.300,153766.100,189461.500,0.000
182310.500,194965.600,338033.100,338513.800,185641.200,191652.000,153773.700,189468.700,0.000
182305.900,194962.400,337970.300,338483.500,185620.300,191649.000,153774.700,189463.000,0.000
182312.300,194954.100,337911.200,338481.200,185582.100,191638.100,153772.800,189453.100,0.000
182325.100,194960.300,337918.800,338487.700,185591.100,191649.000,153785.000,189475.800,0.000
182321.500,194969.000,337945.600,338464.000,185631.000,191660.100,153802.800,189498.500,0.000
182313.700,194976.400,337929.000,338417.100,185644.800,191663.200,153793.400,189469.600,0.000
182303.800,194969.200,337865.400,338386.200,185616.000,191655.800,153788.000,189454.400,0.000
182310.100,194965.900,337811.600,338383.500,185582.000,191653.300,153786.800,189450.200,0.000
182322.700,194970.000,337816.000,338388.800,185593.200,191655.900,153788.600,189476.500,0.000
182336.300,194991.400,337851.200,338373.300,185649.100,191674.500,153802.600,189499.000,0.000
182338.000,195008.500,337844.200,338340.500,185689.200,191696.000,153821.400,189507.800,0.000
182334.000,194996.900,337775.700,338306.300,185663.300,191691.300,153819.700,189488.200,0.000
182339.800,194976.300,337706.100,338297.700,185618.900,191671.400,153815.900,189470.700,0.000
182347.200,194978.100,337703.500,338303.800,185628.700,191671.000,153821.800,189481.600,0.000
182353.900,195002.300,337740.500,338290.800,185682.800,191688.900,153836.000,189509.400,0.000
182356.500,195020.100,337735.100,338252.800,185708.700,191701.700,153843.800,189516.900,0.000
182356.800,195019.100,337676.000,338228.800,185682.400,191700.900,153845.600,189506.600,0.000
182366.200,195012.200,337617.800,338232.300,185640.500,191694.800,153844.700,189498.500,0.000
182371.300,195009.500,337616.600,338233.400,185639.200,191693.900,153847.900,189506.800,0.000
182376.000,195020.200,337648.900,338210.900,185679.600,191706.200,153858.700,189525.400,0.000
182378.300,195030.500,337643.700,338178.400,185704.800,191716.600,153867.500,189536.500,0.000
182374.400,195022.800,337578.500,338153.100,185678.500,191714.000,153867.500,189524.800,0.000
182374.200,195007.500,337508.700,338144.800,185629.800,191705.900,153863.700,189509.500,0.000
182385.600,195011.900,337516.200,338147.400,185636.400,191711.200,153872.900,189526.500,0.000
182391.900,195031.800,337557.800,338131.600,185692.800,191721.800,153886.700,189556.200,0.000
182391.300,195046.100,337558.600,338096.300,185725.100,191737.800,153895.200,189556.300,0.000
182391.400,195041.400,337498.300,338069.300,185695.500,191736.300,153892.900,189543.200,0.000
182393.800,195026.200,337428.800,338063.300,185645.900,191725.800,153890.300,189530.300,0.000
182396.300,195020.700,337424.100,338060.000,185645.600,191722.900,153893.100,189535.000,0.000
182403.300,195038.600,337457.100,338042.300,185699.100,191738.500,153904.800,189556.900,0.000
182412.900,195059.800,337457.500,338013.500,185742.500,191761.000,153920.800,189572.800,0.000
182408.900,195053.300,337395.000,337982.300,185721.600,191755.500,153920.900,189561.000,0.000
182407.400,195032.500,337327.300,337970.100,185670.900,191735.200,153908.400,189534.600,0.000
182419.800,195037.800,337340.700,337984.100,185682.600,191741.100,153925.200,189573.300,0.000
182411.800,195043.900,337364.500,337952.000,185718.200,191747.400,153921.400,189562.500,0.000
182413.600,195059.000,337360.800,337923.000,185752.400,191769.000,153934.400,189579.900,0.000
182405.200,195046.300,337290.400,337893.500,185726.400,191762.500,153932.100,189558.500,0.000
182410.000,195032.600,337224.600,337887.400,185688.600,191749.900,153934.100,189554.900,0.000
182420.800,195034.800,337230.200,337890.600,185694.100,191749.800,153934.000,189566.000,0.000
182424.400,195048.300,337267.500,337873.100,185741.800,191762.600,153945.800,189586.000,0.000
182415.500,195049.700,337255.000,337829.300,185770.200,191768.900,153947.900,189593.700,0.000
182422.000,195049.200,337197.000,337805.700,185751.900,191771.300,153949.500,189578.600,0.000
182401.500,195035.600,337129.700,337798.800,185700.000,191758.600,153942.200,189562.700,0.000
182322.400,195036.500,337131.900,337802.700,185701.300,191763.400,153951.600,189580.100,0.000
182232.500,195044.100,337163.900,337783.100,185744.500,191775.900,153962.600,189602.800,0.000
182232.500,195044.100,337163.900,337783.100,185744.500,191775.900,153962.600,189602.800,0.000
182232.500,195044.100,337163.900,337783.100,185744.500,191775.900,153962.600,189602.800,0.000
182232.500,195044.100,337163.900,337783.100,185744.500,191775.900,153962.600,189602.800,0.000
182232.500,195044.100,337163.900,337783.100,185744.500,191775.900,153962.600,189602.800,0.000
182232.500,195044.100,337163.900,337783.100,185744.500,191775.900,153962.600,189602.800,0.000
182232.500,195044.100,337163.900,337783.100,185744.500,191775.900,153962.600,189602.800,0.000
182232.500,195044.100,337163.900,337783.100,185744.500,191775.900,153962.600,189602.800,0.000
182232.500,195044.100,337163.900,337783.100,185744.500,191775.900,153962.600,189602.800,0.000
182232.500,195044.100,337163.900,337783.100,185744.500,191775.900,153962.600,189602.800,0.000
182232.500,195044.100,337163.900,337783.100,185744.500,191775.900,153962.600,189602.800,0.000
182232.500,195044.100,337163.900,337783.100,185744.500,191775.900,153962.600,189602.800,0.000
182232.500,195044.100,337163.900,337783.100,185744.500,191775.900,153962.600,189602.800,0.000
182232.500,195044.100,337163.900,337783.100,185744.500,191775.900,153962.600,189602.800,0.000
182232.500,195044.100,337163.900,337783.100,185744.500,191775.900,153962.600,189602.800,0.000
182232.500,195044.100,337163.900,337783.100,185744.500,191775.900,153962.600,189602.800,0.000
182232.500,195044.100,337163.900,337783.100,185744.500,191775.900,153962.600,189602.800,0.000
182232.500,195044.100,337163.900,337783.100,185744.500,191775.900,153962.600,189602.800,0.000
182232.500,195044.100,337163.900,337783.100,185744.500,191775.900,153962.600,189602.800,0.000
182232.500,195044.100,337163.900,337783.100,185744.500,191775.900,153962.600,189602.800,0.000
182232.500,195044.100,337163.900,337783.100,185744.500,191775.900,153962.600,189602.800,0.000
182232.500,195044.100,337163.900,337783.100,185744.500,191775.900,153962.600,189602.800,0.000
182232.500,195044.100,337163.900,337783.100,185744.500,191775.900,153962.600,189602.800,0.000
182232.500,195044.100,337163.900,337783.100,185744.500,191775.900,153962.600,189602.800,0.000
182232.500,195044.100,337163.900,337783.100,185744.500,191775.900,153962.600,189602.800,0.000
182424.800,195088.600,336720.900,337375.400,185795.600,191845.100,154036.500,189682.200,0.000
182415.500,195088.200,336709.600,337333.300,185818.500,191847.800,154041.400,189695.500,0.000
182417.800,195083.200,336644.000,337299.700,185790.500,191847.000,154036.300,189686.900,0.000
182422.700,195067.100,336574.600,337294.000,185738.000,191837.300,154021.900,189683.600,0.000
182431.900,195059.000,336562.700,337290.800,185728.200,191830.500,154007.400,189670.200,0.000
182443.300,195075.800,336594.800,337273.900,185780.200,191848.700,154027.400,189705.800,0.000
182446.600,195087.900,336594.100,337240.300,185815.800,191861.300,154037.400,189714.800,0.000
182450.500,195085.400,336543.400,337220.700,185797.800,191859.000,154043.000,189712.400,0.000
182453.900,195071.500,336485.200,337220.200,185750.900,191845.700,154041.300,189710.800,0.000
182458.700,195073.600,336487.500,337216.300,185748.200,191840.000,154030.200,189693.800,0.000
182458.700,195073.600,336487.500,337216.300,185748.200,191840.000,154030.200,189693.800,0.000
182458.700,195073.600,336487.500,337216.300,185748.200,191840.000,154030.200,189693.800,0.000
182458.700,195073.600,336487.500,337216.300,185748.200,191840.000,154030.200,189693.800,0.000
182458.700,195073.600,336487.500,337216.300,185748.200,191840.000,154030.200,189693.800,0.000
182458.700,195073.600,336487.500,337216.300,185748.200,191840.000,154030.200,189693.800,0.000
182458.700,195073.600,336487.500,337216.300,185748.200,191840.000,154030.200,189693.800,0.000
182458.700,195073.600,336487.500,337216.300,185748.200,191840.000,154030.200,189693.800,0.000
182458.700,195073.600,336487.500,337216.300,185748.200,191840.000,154030.200,189693.800,0.000
182458.700,195073.600,336487.500,337216.300,185748.200,191840.000,154030.200,189693.800,0.000
182458.700,195073.600,336487.500,337216.300,185748.200,191840.000,154030.200,189693.800,0.000
182458.700,195073.600,336487.500,337216.300,185748.200,191840.000,154030.200,189693.800,0.000
182458.700,195073.600,336487.500,337216.300,185748.200,191840.000,154030.200,189693.800,0.000
182458.700,195073.600,336487.500,337216.300,185748.200,191840.000,154030.200,189693.800,0.000
182458.700,195073.600,336487.500,337216.300,185748.200,191840.000,154030.200,189693.800,0.000
182458.700,195073.600,336487.500,337216.300,185748.200,191840.000,154030.200,189693.800,0.000
182458.700,195073.600,336487.500,337216.300,185748.200,191840.000,154030.200,189693.800,0.000
182458.700,195073.600,336487.500,337216.300,185748.200,191840.000,154030.200,189693.800,0.000
182458.700,195073.600,336487.500,337216.300,185748.200,191840.000,154030.200,189693.800,0.000
182458.700,195073.600,336487.500,337216.300,185748.200,191840.000,154030.200,189693.800,0.000
182458.700,195073.600,336487.500,337216.300,185748.200,191840.000,154030.200,189693.800,0.000
182458.700,195073.600,336487.500,337216.300,185748.200,191840.000,154030.200,189693.800,0.000
182458.700,195073.600,336487.500,337216.300,185748.200,191840.000,154030.200,189693.800,0.000
182458.700,195073.600,336487.500,337216.300,185748.200,191840.000,154030.200,189693.800,0.000
182458.700,195073.600,336487.500,337216.300,185748.200,191840.000,154030.200,189693.800,0.000
182458.700,195073.600,336487.500,337216.300,185748.200,191840.000,154030.200,189693.800,0.000
182458.700,195073.600,336487.500,337216.300,185748.200,191840.000,154030.200,189693.800,0.000
182458.700,195073.600,336487.500,337216.300,185748.200,191840.000,154030.200,189693.800,0.000
182458.700,195073.600,336487.500,337216.300,185748.200,191840.000,154030.200,189693.800,0.000
182458.700,195073.600,336487.500,337216.300,185748.200,191840.000,154030.200,189693.800,0.000
182458.700,195073.600,336487.500,337216.300,185748.200,191840.000,154030.200,189693.800,0.000
182458.700,195073.600,336487.500,337216.300,185748.200,191840.000,154030.200,189693.800,0.000
182458.700,195073.600,336487.500,337216.300,185748.200,191840.000,154030.200,189693.800,0.000
182458.700,195073.600,336487.500,337216.300,185748.200,191840.000,154030.200,189693.800,0.000
182458.700,195073.600,336487.500,337216.300,185748.200,191840.000,154030.200,189693.800,0.000
182458.700,195073.600,336487.500,337216.300,185748.200,191840.000,154030.200,189693.800,0.000
182458.700,195073.600,336487.500,337216.300,185748.200,191840.000,154030.200,189693.800,0.000
182458.700,195073.600,336487.500,337216.300,185748.200,191840.000,154030.200,189693.800,0.000
182458.700,195073.600,336487.500,337216.300,185748.200,191840.000,154030.200,189693.800,0.000
182458.700,195073.600,336487.500,337216.300,185748.200,191840.000,154030.200,189693.800,0.000
182458.700,195073.600,336487.500,337216.300,185748.200,191840.000,154030.200,189693.800,0.000
182458.700,195073.600,336487.500,337216.300,185748.200,191840.000,154030.200,189693.800,0.000
182506.100,195092.800,335693.600,336458.800,185863.200,191900.200,154094.600,189826.800,0.000
182508.000,195091.000,335635.000,336437.500,185841.400,191899.000,154095.500,189819.400,0.000
182522.700,195092.600,335585.500,336443.500,185810.400,191897.300,154096.200,189816.100,0.000
182536.800,195097.700,335597.800,336449.500,185813.000,191897.800,154092.000,189810.800,0.000
182555.600,195123.300,335646.300,336441.900,185870.200,191917.300,154106.700,189844.300,0.000
182555.000,195134.100,335638.300,336398.600,185900.200,191922.800,154105.700,189845.300,0.000
182551.900,195127.000,335573.600,336372.600,185876.000,191915.100,154106.100,189837.800,0.000
182556.000,195115.200,335507.600,336368.700,185829.600,191906.400,154094.500,189815.400,0.000
182562.800,195115.400,335506.700,336377.600,185831.100,191906.500,154073.100,189829.500,0.000
182562.800,195115.400,335506.700,336377.600,185831.100,191906.500,154073.100,189829.500,0.000
182562.800,195115.400,335506.700,336377.600,185831.100,191906.500,154073.100,189829.500,0.000
182562.800,195115.400,335506.700,336377.600,185831.100,191906.500,154073.100,189829.500,0.000
182562.800,195115.400,335506.700,336377.600,185831.100,191906.500,154073.100,189829.500,0.000
182562.800,195115.400,335506.700,336377.600,185831.100,191906.500,154073.100,189829.500,0.000
182562.800,195115.400,335506.700,336377.600,185831.100,191906.500,154073.100,189829.500,0.000
182562.800,195115.400,335506.700,336377.600,185831.100,191906.500,154073.100,189829.500,0.000
182562.800,195115.400,335506.700,336377.600,185831.100,191906.500,154073.100,189829.500,0.000
182562.800,195115.400,335506.700,336377.600,185831.100,191906.500,154073.100,189829.500,0.000
182562.800,195115.400,335506.700,336377.600,185831.100,191906.500,154073.100,189829.500,0.000
182562.800,195115.400,335506.700,336377.600,185831.100,191906.500,154073.100,189829.500,0.000
182562.800,195115.400,335506.700,336377.600,185831.100,191906.500,154073.100,189829.500,0.000
182562.800,195115.400,335506.700,336377.600,185831.100,191906.500,154073.100,189829.500,0.000
182634.000,195186.900,335268.400,336181.100,185881.200,191975.200,154149.500,189887.100,0.000
182638.200,195194.000,335273.800,336194.400,185894.000,191973.900,154164.300,189902.100,0.000
182631.600,195201.100,335298.500,336167.000,185931.100,191977.900,154168.800,189915.900,0.000
182636.000,195218.500,335296.800,336131.200,185962.600,191992.800,154174.800,189912.200,0.000
182636.900,195214.300,335235.800,336107.900,185941.800,191991.000,154174.600,189907.700,0.000
182637.900,195199.500,335171.400,336105.300,185897.300,191979.200,154170.300,189893.200,0.000
182654.100,195208.500,335182.600,336116.000,185907.900,191984.200,154174.700,189902.800,0.000
182668.100,195231.300,335222.900,336108.400,185961.900,192001.800,154188.000,189929.600,0.000
182652.900,195229.200,335203.500,336057.700,185982.400,192001.600,154188.400,189936.700,0.000
182651.100,195225.200,335143.200,336026.700,185961.500,191994.100,154178.200,189915.700,0.000
182649.000,195210.100,335080.700,336025.400,185917.000,191983.400,154173.500,189904.600,0.000
182659.900,195212.000,335090.300,336036.100,185923.300,191986.400,154180.400,189918.800,0.000
182666.900,195226.800,335126.500,336018.600,185971.500,191998.600,154188.900,189938.500,0.000
182663.600,195239.500,335116.200,335978.200,186001.900,192013.200,154195.800,189943.300,0.000
182652.200,195226.200,335046.700,335943.900,185972.200,192002.500,154190.500,189925.500,0.000
182655.200,195212.800,334985.300,335939.000,185927.300,191989.300,154186.300,189911.300,0.000
182664.000,195215.500,334992.400,335945.000,185927.800,191989.300,154189.800,189926.200,0.000
182664.100,195228.600,335028.500,335923.600,185968.700,192000.000,154200.500,189949.000,0.000
182653.000,195228.100,335013.400,335879.200,185985.300,191997.400,154202.300,189952.300,0.000
182649.800,195220.700,334951.900,335853.300,185954.500,191993.500,154196.300,189929.600,0.000
182662.800,195218.100,334904.100,335859.300,185914.800,191991.300,154192.700,189913.300,0.000
182676.700,195223.100,334914.400,335871.500,185921.500,191992.900,154197.900,189928.100,0.000
182681.600,195235.900,334949.200,335854.900,185962.900,192003.300,154205.500,189945.700,0.000
182682.100,195249.500,334943.700,335820.000,185991.000,192014.000,154210.500,189951.200,0.000
182684.900,195250.900,334882.900,335795.500,185973.600,192020.000,154211.700,189939.200,0.000
182684.900,195250.900,334882.900,335795.500,185973.600,192020.000,154211.700,189939.200,0.000
182684.900,195250.900,334882.900,335795.500,185973.600,192020.000,154211.700,189939.200,0.000
182684.900,195250.900,334882.900,335795.500,185973.600,192020.000,154211.700,189939.200,0.000
182684.900,195250.900,334882.900,335795.500,185973.600,192020.000,154211.700,189939.200,0.000
182684.900,195250.900,334882.900,335795.500,185973.600,192020.000,154211.700,189939.200,0.000
182684.900,195250.900,334882.900,335795.500,185973.600,192020.000,154211.700,189939.200,0.000
182684.900,195250.900,334882.900,335795.500,185973.600,192020.000,154211.700,189939.200,0.000
182684.900,195250.900,334882.900,335795.500,185973.600,192020.000,154211.700,189939.200,0.000
182684.900,195250.900,334882.900,335795.500,185973.600,192020.000,154211.700,189939.200,0.000
182684.900,195250.900,334882.900,335795.500,185973.600,192020.000,154211.700,189939.200,0.000
182684.900,195250.900,334882.900,335795.500,185973.600,192020.000,154211.700,189939.200,0.000
182684.900,195250.900,334882.900,335795.500,185973.600,192020.000,154211.700,189939.200,0.000
182684.900,195250.900,334882.900,335795.500,185973.600,192020.000,154211.700,189939.200,0.000
182684.900,195250.900,334882.900,335795.500,185973.600,192020.000,154211.700,189939.200,0.000
182684.900,195250.900,334882.900,335795.500,185973.600,192020.000,154211.700,189939.200,0.000
182684.900,195250.900,334882.900,335795.500,185973.600,192020.000,154211.700,189939.200,0.000
182684.900,195250.900,334882.900,335795.500,185973.600,192020.000,154211.700,189939.200,0.000
182684.900,195250.900,334882.900,335795.500,185973.600,192020.000,154211.700,189939.200,0.000
182684.900,195250.900,334882.900,335795.500,185973.600,192020.000,154211.700,189939.200,0.000
182684.900,195250.900,334882.900,335795.500,185973.600,192020.000,154211.700,189939.200,0.000
182724.600,195274.200,334420.800,335483.000,185943.500,192045.200,154255.400,189978.500,0.000
182730.100,195270.200,334415.200,335486.100,185933.700,192030.500,154238.800,189960.500,0.000
182737.000,195287.600,334445.900,335471.200,185982.100,192047.100,154253.400,189988.800,0.000
182734.800,195301.100,334439.400,335438.600,186017.300,192063.200,154265.800,190002.800,0.000
182718.900,195296.900,334380.300,335414.100,186003.000,192063.300,154273.900,190007.900,0.000
182712.900,195281.800,334317.300,335406.200,185958.300,192047.000,154257.500,189970.600,0.000
182733.900,195295.400,334337.100,335426.600,185973.000,192058.900,154266.700,189991.000,0.000
182743.800,195305.200,334369.700,335408.500,186017.800,192063.000,154270.200,190009.600,0.000
182746.300,195316.400,334362.300,335372.900,186046.200,192075.300,154275.400,190019.100,0.000
182744.200,195312.100,334301.800,335352.400,186027.400,192076.600,154277.300,190017.600,0.000
182745.300,195298.300,334234.400,335352.700,185989.900,192071.000,154278.800,190014.800,0.000
182746.500,195291.600,334221.500,335354.000,185983.600,192067.400,154273.700,190007.900,0.000
182752.000,195306.500,334253.400,335340.000,186027.000,192086.000,154287.400,190031.200,0.000
182746.000,195314.000,334245.400,335296.200,186049.000,192096.700,154289.100,190029.000,0.000
182741.900,195304.000,334187.900,335266.600,186019.400,192094.600,154292.800,190019.400,0.000
182745.500,195292.000,334133.700,335261.100,185972.500,192084.500,154287.900,190003.800,0.000
182750.000,195287.900,334135.400,335264.800,185969.000,192076.000,154283.700,190010.200,0.000
182760.800,195307.100,334175.800,335257.300,186026.400,192092.200,154297.900,190035.800,0.000
182756.900,195317.900,334168.500,335222.400,186062.900,192100.700,154304.700,190044.000,0.000
182757.300,195315.900,334114.200,335201.400,186045.300,192098.100,154302.200,190032.900,0.000
182761.300,195305.200,334055.700,335203.900,186000.900,192090.700,154299.600,190022.400,0.000
182773.300,195305.300,334056.900,335214.600,186002.400,192094.000,154303.500,190032.700,0.000
182777.600,195315.700,334091.600,335196.500,186047.300,192093.800,154306.000,190051.300,0.000
182772.600,195330.000,334090.000,335159.900,186083.400,192103.200,154309.100,190057.400,0.000
182761.900,195326.100,334031.600,335132.600,186062.700,192100.600,154306.500,190042.700,0.000
182768.300,195315.500,333976.900,335130.400,186019.100,192093.000,154298.900,190034.600,0.000
182777.400,195316.000,333980.800,335132.000,186019.200,192092.800,154296.700,190030.500,0.000
182779.900,195329.000,334015.000,335110.100,186062.100,192094.800,154304.700,190046.500,0.000
182779.900,195341.100,334009.100,335073.300,186087.400,192105.400,154309.300,190054.800,0.000
182771.800,195328.700,333940.600,335041.200,186047.800,192094.500,154297.300,190036.600,0.000
182768.700,195311.200,333872.800,335036.200,185995.400,192082.900,154293.100,190029.500,0.000
182778.500,195313.200,333877.400,335048.100,186007.600,192089.300,154306.400,190043.800,0.000
182789.300,195340.200,333918.000,335041.800,186066.500,192113.600,154327.600,190073.300,0.000
182777.500,195343.600,333898.400,334998.900,186091.200,192123.000,154330.500,190066.100,0.000
182767.700,195313.800,333829.800,334964.300,186059.700,192117.100,154327.200,190047.200,0.000
182778.800,195312.100,333781.100,334967.900,186024.500,192117.700,154332.700,190048.500,0.000
182778.800,195312.100,333781.100,334967.900,186024.500,192117.700,154332.700,190048.500,0.000
182778.800,195312.100,333781.100,334967.900,186024.500,192117.700,154332.700,190048.500,0.000
182778.800,195312.100,333781.100,334967.900,186024.500,192117.700,154332.700,190048.500,0.000
182778.800,195312.100,333781.100,334967.900,186024.500,192117.700,154332.700,190048.500,0.000
182778.800,195312.100,333781.100,334967.900,186024.500,192117.700,154332.700,190048.500,0.000
182778.800,195312.100,333781.100,334967.900,186024.500,192117.700,154332.700,190048.500,0.000
182778.800,195312.100,333781.100,334967.900,186024.500,192117.700,154332.700,190048.500,0.000
182778.800,195312.100,333781.100,334967.900,186024.500,192117.700,154332.700,190048.500,0.000
182778.800,195312.100,333781.100,334967.900,186024.500,192117.700,154332.700,190048.500,0.000
182778.800,195312.100,333781.100,334967.900,186024.500,192117.700,154332.700,190048.500,0.000
182778.800,195312.100,333781.100,334967.900,186024.500,192117.700,154332.700,190048.500,0.000
182778.800,195312.100,333781.100,334967.900,186024.500,192117.700,154332.700,190048.500,0.000
182778.800,195312.100,333781.100,334967.900,186024.500,192117.700,154332.700,190048.500,0.000
182778.800,195312.100,333781.100,334967.900,186024.500,192117.700,154332.700,190048.500,0.000
182778.800,195312.100,333781.100,334967.900,186024.500,192117.700,154332.700,190048.500,0.000
182778.800,195312.100,333781.100,334967.900,186024.500,192117.700,154332.700,190048.500,0.000
182778.800,195312.100,333781.100,334967.900,186024.500,192117.700,154332.700,190048.500,0.000
182778.800,195312.100,333781.100,334967.900,186024.500,192117.700,154332.700,190048.500,0.000
182778.800,195312.100,333781.100,334967.900,186024.500,192117.700,154332.700,190048.500,0.000
182778.800,195312.100,333781.100,334967.900,186024.500,192117.700,154332.700,190048.500,0.000
182778.800,195312.100,333781.100,334967.900,186024.500,192117.700,154332.700,190048.500,0.000
182903.300,195444.600,333557.900,334743.000,186163.300,192219.900,154436.800,190177.100,0.000
182906.900,195457.600,333556.000,334708.300,186192.600,192231.600,154444.000,190193.200,0.000
182907.100,195451.600,333498.900,334682.600,186160.000,192230.700,154444.200,190167.400,0.000
182910.200,195435.200,333439.600,334678.600,186102.900,192219.500,154437.900,190155.500,0.000
182917.600,195434.400,333444.300,334681.900,186094.800,192215.500,154436.600,190156.200,0.000
182920.500,195448.000,333479.800,334669.700,186141.100,192229.500,154446.800,190182.000,0.000
182917.800,195461.300,333475.900,334632.400,186171.600,192243.400,154453.100,190185.000,0.000
182910.900,195455.200,333415.800,334600.100,186145.900,192245.400,154455.600,190181.000,0.000
182907.200,195433.900,333346.300,334592.100,186094.200,192228.000,154441.300,190156.000,0.000
182909.100,195426.800,333341.500,334600.000,186097.800,192223.000,154444.000,190168.900,0.000
182900.300,195429.300,333361.900,334576.200,186140.900,192228.800,154447.500,190180.400,0.000
182900.300,195429.300,333361.900,334576.200,186140.900,192228.800,154447.500,190180.400,0.000
182900.300,195429.300,333361.900,334576.200,186140.900,192228.800,154447.500,190180.400,0.000
182900.300,195429.300,333361.900,334576.200,186140.900,192228.800,154447.500,190180.400,0.000
182900.300,195429.300,333361.900,334576.200,186140.900,192228.800,154447.500,190180.400,0.000
182900.300,195429.300,333361.900,334576.200,186140.900,192228.800,154447.500,190180.400,0.000
182900.300,195429.300,333361.900,334576.200,186140.900,192228.800,154447.500,190180.400,0.000
182900.300,195429.300,333361.900,334576.200,186140.900,192228.800,154447.500,190180.400,0.000
182915.100,195413.700,333141.100,334434.500,186091.100,192220.400,154433.100,190160.500,0.000
182918.500,195409.500,333137.600,334441.800,186098.200,192215.900,154435.500,190171.700,0.000
182922.100,195421.000,333167.700,334426.800,186146.400,192218.800,154442.300,190189.300,0.000
182913.100,195428.500,333156.500,334385.800,186170.000,192230.000,154449.200,190189.700,0.000
182909.300,195426.500,333098.500,334360.000,186142.800,192226.700,154446.400,190180.500,0.000
182913.400,195418.600,333044.000,334356.700,186099.700,192217.200,154443.300,190170.500,0.000
182930.100,195435.100,333061.200,334370.700,186110.800,192229.700,154462.000,190197.000,0.000
182929.900,195451.600,333092.900,334344.800,186150.200,192234.500,154450.900,190183.100,0.000
182928.800,195468.100,333095.200,334309.900,186185.300,192246.500,154459.800,190204.500,0.000
182921.200,195458.900,333034.400,334277.000,186151.100,192239.200,154451.600,190179.400,0.000
182921.600,195445.500,332976.700,334278.300,186106.800,192233.200,154452.000,190176.500,0.000
182920.400,195433.100,332967.100,334281.000,186099.300,192220.600,154441.700,190167.900,0.000
182920.400,195433.100,332967.100,334281.000,186099.300,192220.600,154441.700,190167.900,0.000
182920.400,195433.100,332967.100,334281.000,186099.300,192220.600,154441.700,190167.900,0.000
182920.400,195433.100,332967.100,334281.000,186099.300,192220.600,154441.700,190167.900,0.000
182920.400,195433.100,332967.100,334281.000,186099.300,192220.600,154441.700,190167.900,0.000
182920.400,195433.100,332967.100,334281.000,186099.300,192220.600,154441.700,190167.900,0.000
182920.400,195433.100,332967.100,334281.000,186099.300,192220.600,154441.700,190167.900,0.000
182920.400,195433.100,332967.100,334281.000,186099.300,192220.600,154441.700,190167.900,0.000
182920.400,195433.100,332967.100,334281.000,186099.300,192220.600,154441.700,190167.900,0.000
182920.400,195433.100,332967.100,334281.000,186099.300,192220.600,154441.700,190167.900,0.000
182920.400,195433.100,332967.100,334281.000,186099.300,192220.600,154441.700,190167.900,0.000
182920.400,195433.100,332967.100,334281.000,186099.300,192220.600,154441.700,190167.900,0.000
182920.400,195433.100,332967.100,334281.000,186099.300,192220.600,154441.700,190167.900,0.000
182920.400,195433.100,332967.100,334281.000,186099.300,192220.600,154441.700,190167.900,0.000
182920.400,195433.100,332967.100,334281.000,186099.300,192220.600,154441.700,190167.900,0.000
182920.400,195433.100,332967.100,334281.000,186099.300,192220.600,154441.700,190167.900,0.000
182920.400,195433.100,332967.100,334281.000,186099.300,192220.600,154441.700,190167.900,0.000
182920.400,195433.100,332967.100,334281.000,186099.300,192220.600,154441.700,190167.900,0.000
182920.400,195433.100,332967.100,334281.000,186099.300,192220.600,154441.700,190167.900,0.000
182920.400,195433.100,332967.100,334281.000,186099.300,192220.600,154441.700,190167.900,0.000
182920.400,195433.100,332967.100,334281.000,186099.300,192220.600,154441.700,190167.900,0.000
182920.400,195433.100,332967.100,334281.000,186099.300,192220.600,154441.700,190167.900,0.000
182920.400,195433.100,332967.100,334281.000,186099.300,192220.600,154441.700,190167.900,0.000
182920.400,195433.100,332967.100,334281.000,186099.300,192220.600,154441.700,190167.900,0.000
182920.400,195433.100,332967.100,334281.000,186099.300,192220.600,154441.700,190167.900,0.000
182920.400,195433.100,332967.100,334281.000,186099.300,192220.600,154441.700,190167.900,0.000
182920.400,195433.100,332967.100,334281.000,186099.300,192220.600,154441.700,190167.900,0.000
182920.400,195433.100,332967.100,334281.000,186099.300,192220.600,154441.700,190167.900,0.000
182920.400,195433.100,332967.100,334281.000,186099.300,192220.600,154441.700,190167.900,0.000
182936.100,195450.600,332438.700,333855.700,186125.400,192248.300,154479.300,190202.500,0.000
182949.900,195459.800,332452.000,333874.400,186138.100,192265.100,154499.600,190230.600,0.000
182951.800,195475.900,332480.900,333856.800,186180.500,192279.100,154506.300,190244.600,0.000
182945.100,195486.300,332467.400,333815.400,186202.900,192287.400,154512.500,190251.000,0.000
182935.500,195477.300,332395.500,333788.100,186171.600,192279.500,154499.100,190220.600,0.000
182938.200,195465.200,332331.500,333788.700,186133.200,192265.400,154493.900,190215.300,0.000
182937.700,195456.000,332330.800,333791.500,186136.100,192262.700,154500.900,190231.100,0.000
182939.100,195463.700,332365.600,333770.800,186181.800,192274.000,154507.900,190238.800,0.000
182935.500,195474.400,332363.200,333732.700,186218.700,192286.900,154514.800,190250.800,0.000
182937.700,195476.800,332308.100,333713.100,186199.800,192284.800,154509.000,190237.200,0.000
182940.000,195462.700,332242.500,333708.300,186149.200,192261.800,154501.500,190232.800,0.000
182940.000,195462.700,332242.500,333708.300,186149.200,192261.800,154501.500,190232.800,0.000
182940.000,195462.700,332242.500,333708.300,186149.200,192261.800,154501.500,190232.800,0.000
182940.000,195462.700,332242.500,333708.300,186149.200,192261.800,154501.500,190232.800,0.000
182940.000,195462.700,332242.500,333708.300,186149.200,192261.800,154501.500,190232.800,0.000
182940.000,195462.700,332242.500,333708.300,186149.200,192261.800,154501.500,190232.800,0.000
182940.000,195462.700,332242.500,333708.300,186149.200,192261.800,154501.500,190232.800,0.000
182940.000,195462.700,332242.500,333708.300,186149.200,192261.800,154501.500,190232.800,0.000
182940.000,195462.700,332242.500,333708.300,186149.200,192261.800,154501.500,190232.800,0.000
182940.000,195462.700,332242.500,333708.300,186149.200,192261.800,154501.500,190232.800,0.000
182940.000,195462.700,332242.500,333708.300,186149.200,192261.800,154501.500,190232.800,0.000
182975.800,195493.100,332072.700,333577.700,186134.900,192273.700,154502.400,190234.100,0.000
182979.300,195511.400,332112.300,333566.300,186183.900,192285.300,154513.200,190253.700,0.000
182968.100,195515.400,332100.500,333527.000,186207.300,192295.000,154518.900,190260.100,0.000
182962.500,195507.800,332036.100,333499.600,186175.500,192291.800,154507.400,190239.900,0.000
182970.800,195496.900,331980.500,333498.700,186131.300,192278.200,154502.900,190230.300,0.000
182984.200,195500.100,331987.300,333509.400,186135.400,192277.000,154504.000,190238.400,0.000
182996.900,195521.500,332027.000,333501.100,186185.900,192293.800,154527.400,190278.200,0.000
182990.400,195527.600,332008.700,333459.300,186209.700,192298.600,154525.900,190262.900,0.000
182989.500,195529.100,331944.500,333432.100,186188.300,192302.200,154523.500,190240.400,0.000
182988.600,195513.500,331874.300,333431.200,186141.200,192290.200,154518.000,190233.800,0.000
183001.600,195522.600,331881.900,333448.300,186152.800,192298.500,154527.600,190256.000,0.000
183001.600,195522.600,331881.900,333448.300,186152.800,192298.500,154527.600,190256.000,0.000
183001.600,195522.600,331881.900,333448.300,186152.800,192298.500,154527.600,190256.000,0.000
183001.600,195522.600,331881.900,333448.300,186152.800,192298.500,154527.600,190256.000,0.000
183001.600,195522.600,331881.900,333448.300,186152.800,192298.500,154527.600,190256.000,0.000
183001.600,195522.600,331881.900,333448.300,186152.800,192298.500,154527.600,190256.000,0.000
183001.600,195522.600,331881.900,333448.300,186152.800,192298.500,154527.600,190256.000,0.000
183001.600,195522.600,331881.900,333448.300,186152.800,192298.500,154527.600,190256.000,0.000
183001.600,195522.600,331881.900,333448.300,186152.800,192298.500,154527.600,190256.000,0.000
183001.600,195522.600,331881.900,333448.300,186152.800,192298.500,154527.600,190256.000,0.000
183001.600,195522.600,331881.900,333448.300,186152.800,192298.500,154527.600,190256.000,0.000
183001.600,195522.600,331881.900,333448.300,186152.800,192298.500,154527.600,190256.000,0.000
183001.600,195522.600,331881.900,333448.300,186152.800,192298.500,154527.600,190256.000,0.000
183001.600,195522.600,331881.900,333448.300,186152.800,192298.500,154527.600,190256.000,0.000
183001.600,195522.600,331881.900,333448.300,186152.800,192298.500,154527.600,190256.000,0.000
183001.600,195522.600,331881.900,333448.300,186152.800,192298.500,154527.600,190256.000,0.000
183001.600,195522.600,331881.900,333448.300,186152.800,192298.500,154527.600,190256.000,0.000
183001.600,195522.600,331881.900,333448.300,186152.800,192298.500,154527.600,190256.000,0.000
183001.600,195522.600,331881.900,333448.300,186152.800,192298.500,154527.600,190256.000,0.000
183001.600,195522.600,331881.900,333448.300,186152.800,192298.500,154527.600,190256.000,0.000
183001.600,195522.600,331881.900,333448.300,186152.800,192298.500,154527.600,190256.000,0.000
183001.600,195522.600,331881.900,333448.300,186152.800,192298.500,154527.600,190256.000,0.000
183001.600,195522.600,331881.900,333448.300,186152.800,192298.500,154527.600,190256.000,0.000
183001.600,195522.600,331881.900,333448.300,186152.800,192298.500,154527.600,190256.000,0.000
183001.600,195522.600,331881.900,333448.300,186152.800,192298.500,154527.600,190256.000,0.000
183001.600,195522.600,331881.900,333448.300,186152.800,192298.500,154527.600,190256.000,0.000
183001.600,195522.600,331881.900,333448.300,186152.800,192298.500,154527.600,190256.000,0.000
183001.600,195522.600,331881.900,333448.300,186152.800,192298.500,154527.600,190256.000,0.000
183001.600,195522.600,331881.900,333448.300,186152.800,192298.500,154527.600,190256.000,0.000
183001.600,195522.600,331881.900,333448.300,186152.800,192298.500,154527.600,190256.000,0.000
183001.600,195522.600,331881.900,333448.300,186152.800,192298.500,154527.600,190256.000,0.000
183001.600,195522.600,331881.900,333448.300,186152.800,192298.500,154527.600,190256.000,0.000
183001.600,195522.600,331881.900,333448.300,186152.800,192298.500,154527.600,190256.000,0.000
183034.500,195570.000,331357.600,332962.200,186227.400,192347.300,154571.400,190285.500,0.000
183037.600,195561.000,331301.400,332963.000,186188.300,192341.200,154569.700,190285.000,0.000
183049.600,195564.900,331306.300,332976.700,186198.900,192345.400,154580.400,190304.200,0.000
183052.900,195575.000,331341.500,332954.800,186243.100,192354.100,154583.500,190314.000,0.000
183050.600,195586.700,331341.900,332915.200,186269.000,192362.800,154591.000,190320.600,0.000
183054.100,195585.300,331292.300,332891.700,186251.600,192361.500,154591.500,190310.200,0.000
183061.200,195571.200,331241.600,332893.300,186210.700,192350.300,154586.500,190298.400,0.000
183066.300,195567.700,331245.300,332902.300,186206.200,192347.100,154591.500,190309.500,0.000
183079.800,195590.400,331290.500,332901.700,186254.200,192364.300,154611.600,190348.900,0.000
183077.300,195600.600,331285.200,332864.500,186271.800,192372.400,154610.900,190338.300,0.000
183077.300,195600.600,331285.200,332864.500,186271.800,192372.400,154610.900,190338.300,0.000
183077.300,195600.600,331285.200,332864.500,186271.800,192372.400,154610.900,190338.300,0.000
183077.300,195600.600,331285.200,332864.500,186271.800,192372.400,154610.900,190338.300,0.000
183077.300,195600.600,331285.200,332864.500,186271.800,192372.400,154610.900,190338.300,0.000
183077.300,195600.600,331285.200,332864.500,186271.800,192372.400,154610.900,190338.300,0.000
183077.300,195600.600,331285.200,332864.500,186271.800,192372.400,154610.900,190338.300,0.000
183077.300,195600.600,331285.200,332864.500,186271.800,192372.400,154610.900,190338.300,0.000
183077.300,195600.600,331285.200,332864.500,186271.800,192372.400,154610.900,190338.300,0.000
183077.300,195600.600,331285.200,332864.500,186271.800,192372.400,154610.900,190338.300,0.000
183077.300,195600.600,331285.200,332864.500,186271.800,192372.400,154610.900,190338.300,0.000
183077.300,195600.600,331285.200,332864.500,186271.800,192372.400,154610.900,190338.300,0.000
183077.300,195600.600,331285.200,332864.500,186271.800,192372.400,154610.900,190338.300,0.000
183107.800,195592.000,331039.700,332718.000,186230.600,192383.500,154638.900,190345.600,0.000
183109.400,195603.300,331081.900,332709.200,186276.100,192388.900,154642.200,190360.100,0.000
183103.400,195610.000,331076.600,332675.300,186303.900,192396.300,154644.200,190362.000,0.000
183095.100,195600.000,331019.700,332647.100,186270.800,192388.600,154633.900,190342.600,0.000
183094.700,195586.800,330960.400,332646.200,186219.500,192381.300,154628.100,190331.000,0.000
183103.400,195589.700,330964.000,332660.000,186221.000,192379.700,154638.200,190346.900,0.000
183107.800,195609.600,331001.300,332652.600,186270.700,192396.100,154650.000,190371.200,0.000
183103.100,195623.700,330997.600,332619.400,186305.500,192408.100,154651.400,190374.600,0.000
183093.100,195616.800,330936.000,332589.900,186284.500,192406.600,154646.900,190359.800,0.000
183093.000,195598.900,330873.500,332585.800,186238.000,192397.400,154641.400,190340.500,0.000
183096.100,195590.600,330876.400,332592.100,186234.500,192392.300,154638.600,190349.500,0.000
183093.800,195596.000,330914.600,332574.800,186278.200,192401.300,154643.300,190367.000,0.000
183093.800,195596.000,330914.600,332574.800,186278.200,192401.300,154643.300,190367.000,0.000
183093.800,195596.000,330914.600,332574.800,186278.200,192401.300,154643.300,190367.000,0.000
183093.800,195596.000,330914.600,332574.800,186278.200,192401.300,154643.300,190367.000,0.000
183093.800,195596.000,330914.600,332574.800,186278.200,192401.300,154643.300,190367.000,0.000
183093.800,195596.000,330914.600,332574.800,186278.200,192401.300,154643.300,190367.000,0.000
183093.800,195596.000,330914.600,332574.800,186278.200,192401.300,154643.300,190367.000,0.000
183093.800,195596.000,330914.600,332574.800,186278.200,192401.300,154643.300,190367.000,0.000
183093.800,195596.000,330914.600,332574.800,186278.200,192401.300,154643.300,190367.000,0.000
183093.800,195596.000,330914.600,332574.800,186278.200,192401.300,154643.300,190367.000,0.000
183093.800,195596.000,330914.600,332574.800,186278.200,192401.300,154643.300,190367.000,0.000
183093.800,195596.000,330914.600,332574.800,186278.200,192401.300,154643.300,190367.000,0.000
183093.800,195596.000,330914.600,332574.800,186278.200,192401.300,154643.300,190367.000,0.000
183093.800,195596.000,330914.600,332574.800,186278.200,192401.300,154643.300,190367.000,0.000
183093.800,195596.000,330914.600,332574.800,186278.200,192401.300,154643.300,190367.000,0.000
183093.800,195596.000,330914.600,332574.800,186278.200,192401.300,154643.300,190367.000,0.000
183093.800,195596.000,330914.600,332574.800,186278.200,192401.300,154643.300,190367.000,0.000
183093.800,195596.000,330914.600,332574.800,186278.200,192401.300,154643.300,190367.000,0.000
183093.800,195596.000,330914.600,332574.800,186278.200,192401.300,154643.300,190367.000,0.000
183093.800,195596.000,330914.600,332574.800,186278.200,192401.300,154643.300,190367.000,0.000
183093.800,195596.000,330914.600,332574.800,186278.200,192401.300,154643.300,190367.000,0.000
183093.800,195596.000,330914.600,332574.800,186278.200,192401.300,154643.300,190367.000,0.000
183093.800,195596.000,330914.600,332574.800,186278.200,192401.300,154643.300,190367.000,0.000
183093.800,195596.000,330914.600,332574.800,186278.200,192401.300,154643.300,190367.000,0.000
183093.800,195596.000,330914.600,332574.800,186278.200,192401.300,154643.300,190367.000,0.000
183093.800,195596.000,330914.600,332574.800,186278.200,192401.300,154643.300,190367.000,0.000
183093.800,195596.000,330914.600,332574.800,186278.200,192401.300,154643.300,190367.000,0.000
183132.200,195628.600,330532.800,332181.700,186319.000,192438.500,154685.400,190397.000,0.000
183135.900,195619.000,330479.600,332185.200,186279.500,192427.900,154680.300,190387.600,0.000
183143.900,195621.800,330495.100,332196.000,186285.300,192433.000,154683.200,190390.200,0.000
183147.000,195631.000,330539.600,332183.300,186326.300,192435.500,154685.300,190405.800,0.000
183141.500,195635.500,330535.000,332145.000,186351.100,192442.800,154689.300,190413.200,0.000
183142.400,195631.800,330487.800,332117.200,186332.100,192442.200,154687.300,190401.900,0.000
183150.300,195622.100,330444.600,332118.000,186294.700,192435.400,154686.400,190394.300,0.000
183158.100,195618.500,330454.700,332125.600,186297.600,192431.800,154687.800,190405.500,0.000
183165.000,195632.300,330495.400,332118.600,186344.400,192445.500,154696.700,190427.000,0.000
183160.800,195644.700,330493.400,332089.300,186373.700,192462.800,154707.900,190441.600,0.000
183153.000,195639.000,330437.000,332059.800,186343.500,192459.100,154703.500,190418.600,0.000
183152.400,195624.900,330378.200,332059.800,186290.900,192447.600,154695.900,190400.800,0.000
183155.400,195617.900,330376.100,332069.900,186286.200,192443.900,154697.100,190410.300,0.000
183159.000,195629.300,330411.900,332057.600,186333.600,192457.500,154707.300,190431.400,0.000
183155.000,195636.200,330412.000,332020.000,186360.900,192456.400,154707.300,190436.400,0.000
183149.800,195625.700,330358.000,331989.900,186337.200,192442.800,154697.400,190422.000,0.000
183154.300,195609.800,330304.100,331989.800,186296.300,192430.600,154692.300,190411.800,0.000
183164.300,195608.300,330317.800,332000.600,186299.300,192431.600,154699.100,190420.100,0.000
183168.400,195618.700,330363.100,331988.000,186346.000,192440.700,154706.200,190441.700,0.000
183164.300,195626.000,330359.400,331947.800,186366.500,192445.800,154706.500,190443.800,0.000
183162.800,195626.000,330306.100,331923.400,186346.900,192451.800,154703.400,190421.700,0.000
183165.200,195612.400,330246.800,331928.000,186306.600,192448.400,154700.000,190410.000,0.000
183170.000,195610.000,330249.900,331935.900,186307.900,192441.600,154704.800,190415.400,0.000
183175.900,195632.400,330294.900,331930.400,186367.000,192462.000,154722.500,190452.300,0.000
183175.900,195632.400,330294.900,331930.400,186367.000,192462.000,154722.500,190452.300,0.000
183175.900,195632.400,330294.900,331930.400,186367.000,192462.000,154722.500,190452.300,0.000
183175.900,195632.400,330294.900,331930.400,186367.000,192462.000,154722.500,190452.300,0.000
183175.900,195632.400,330294.900,331930.400,186367.000,192462.000,154722.500,190452.300,0.000
183175.900,195632.400,330294.900,331930.400,186367.000,192462.000,154722.500,190452.300,0.000
183175.900,195632.400,330294.900,331930.400,186367.000,192462.000,154722.500,190452.300,0.000
183175.900,195632.400,330294.900,331930.400,186367.000,192462.000,154722.500,190452.300,0.000
183175.900,195632.400,330294.900,331930.400,186367.000,192462.000,154722.500,190452.300,0.000
183175.900,195632.400,330294.900,331930.400,186367.000,192462.000,154722.500,190452.300,0.000
183180.900,195640.500,330153.800,331797.900,186368.700,192471.200,154729.100,190452.400,0.000
183178.500,195654.000,330159.100,331768.000,186406.000,192484.200,154738.400,190465.800,0.000
183179.700,195654.000,330111.000,331746.900,186389.700,192491.200,154743.100,190461.700,0.000
183171.200,195627.900,330047.400,331738.700,186331.800,192469.500,154727.600,190430.700,0.000
183178.300,195627.800,330054.500,331749.600,186329.800,192465.600,154726.700,190445.000,0.000
183173.800,195637.100,330085.500,331729.700,186368.100,192477.000,154732.000,190452.000,0.000
183171.800,195648.500,330078.400,331694.200,186389.400,192488.400,154735.600,190454.300,0.000
183165.300,195640.300,330016.500,331666.300,186351.700,192484.800,154728.300,190436.300,0.000
183164.000,195619.500,329956.100,331666.800,186296.500,192454.900,154712.400,190422.000,0.000
183169.300,195616.400,329961.700,331678.700,186294.200,192455.000,154712.700,190426.700,0.000
183170.000,195630.900,329997.700,331670.800,186338.600,192471.600,154728.400,190460.500,0.000
183163.700,195637.100,329994.700,331630.500,186363.800,192477.900,154728.700,190456.600,0.000
183158.800,195628.600,329939.800,331602.800,186342.400,192475.600,154728.400,190443.900,0.000
183168.100,195620.500,329891.800,331608.300,186312.000,192472.100,154731.200,190442.100,0.000
183179.000,195620.900,329908.500,331621.300,186318.600,192471.600,154731.700,190451.100,0.000
183180.200,195630.200,329950.900,331603.400,186360.500,192482.300,154733.700,190457.900,0.000
183182.500,195644.700,329959.500,331573.800,186393.100,192494.500,154748.600,190474.900,0.000
183179.600,195642.100,329907.600,331548.300,186369.900,192491.700,154744.200,190460.800,0.000
183180.200,195629.200,329847.700,331548.300,186327.400,192485.000,154734.600,190441.200,0.000
183188.500,195627.300,329852.500,331559.200,186330.000,192480.800,154733.700,190447.300,0.000
183192.100,195641.100,329892.400,331543.300,186372.700,192491.000,154741.400,190466.500,0.000
183184.700,195647.700,329888.600,331502.200,186396.500,192498.200,154741.800,190463.800,0.000
183183.500,195643.400,329836.600,331479.400,186381.000,192500.800,154742.800,190455.200,0.000
183190.400,195633.600,329784.500,331485.600,186343.500,192493.800,154744.800,190453.800,0.000
183198.300,195633.700,329790.300,331498.700,186342.500,192491.500,154746.400,190460.900,0.000
183203.000,195649.200,329827.000,331485.300,186381.500,192504.900,154752.000,190459.000,0.000
183198.300,195658.300,329824.800,331448.300,186407.000,192511.700,154754.800,190470.900,0.000
183200.500,195659.200,329777.800,331430.400,186391.900,192510.100,154754.900,190469.400,0.000
183205.800,195645.500,329722.300,331431.400,186352.300,192498.900,154751.500,190453.200,0.000
