EEG 1, EEG 2, EEG 3, EEG 4, EEG 5, EEG 6, EEG 7, EEG 8, TRIG
750000.100,416702.800,144723.300,708819.000,750000.100,750000.100,750000.100,750000.100,0.000
750000.100,-337492.500,407218.500,750000.100,750000.100,750000.100,750000.100,533988.900,0.000
750000.100,-678778.800,548375.100,750000.100,750000.100,750000.100,750000.100,266413.800,0.000
750000.100,-750000.100,574305.800,750000.100,750000.100,750000.100,750000.100,737041.000,0.000
750000.100,-362214.500,653602.900,750000.100,750000.100,750000.100,750000.100,750000.100,0.000
750000.100,712686.200,679113.400,750000.100,750000.100,750000.100,750000.100,750000.100,0.000
750000.100,750000.100,722818.200,750000.100,750000.100,750000.100,750000.100,750000.100,0.000
750000.100,750000.100,750000.100,750000.100,750000.100,750000.100,750000.100,750000.100,0.000
750000.100,750000.100,750000.100,750000.100,750000.100,750000.100,750000.100,750000.100,0.000
750000.100,750000.100,750000.100,750000.100,750000.100,750000.100,750000.100,750000.100,0.000
750000.100,750000.100,750000.100,750000.100,750000.100,750000.100,748083.900,750000.100,0.000
706132.300,750000.100,750000.100,750000.100,714298.100,647697.600,625973.000,703291.600,0.000
599877.500,677626.100,750000.100,750000.100,605753.800,550360.400,532071.300,597979.100,0.000
514303.300,580246.100,750000.100,750000.100,518328.900,471469.800,455554.400,511974.900,0.000
443423.700,499329.200,750000.100,750000.100,444752.700,405600.300,391523.400,440078.300,0.000
384024.300,431763.100,750000.100,733809.900,383497.100,350479.200,338365.800,380535.800,0.000
334235.300,375525.300,750000.100,634791.100,333583.300,305049.100,294719.800,331555.300,0.000
297574.000,334215.900,750000.100,561697.900,297425.700,271771.800,262519.000,295487.400,0.000
282470.300,317035.200,719062.200,530038.200,282038.000,257876.500,248944.000,280182.200,0.000
274607.800,307813.000,690446.300,512357.300,273090.000,250289.500,241409.500,271668.300,0.000
267536.300,299575.300,664906.600,496758.700,265154.200,243461.500,234788.200,264311.400,0.000
261022.900,292303.300,642058.600,482800.800,258730.000,237537.300,229221.300,258179.200,0.000
254927.300,285646.000,621120.400,469726.200,253153.900,232170.600,224176.600,252529.900,0.000
249185.100,279222.800,601390.800,457171.700,247358.300,226935.600,219065.100,246679.100,0.000
243849.600,273024.300,582864.100,445442.800,241243.500,221781.600,213944.700,240843.700,0.000
238956.100,267375.900,565992.300,434928.800,235734.700,217066.600,209380.600,235766.600,0.000
234431.100,262396.400,550808.700,425479.300,231411.000,212998.600,205602.500,231618.200,0.000
230168.700,257818.400,536746.700,416508.300,227701.500,209333.000,202188.300,227785.200,0.000
226109.200,253307.000,523242.300,407703.300,223660.200,205662.300,198593.800,223648.600,0.000
222299.500,248861.300,510347.700,399361.100,219200.800,201944.400,194879.600,219406.900,0.000
218796.300,244784.300,498528.300,391906.300,215166.700,198523.500,191581.400,215736.400,0.000
215545.900,241226.400,487902.300,385222.800,212126.400,195618.400,188923.900,212849.100,0.000
212459.900,237953.900,477996.600,378788.300,209584.900,193015.200,186522.700,210154.600,0.000
209489.000,234655.100,468310.700,372338.600,206672.100,190346.800,183897.100,207108.400,0.000
206684.900,231343.800,458927.800,366167.500,203300.200,187567.400,181095.600,203892.100,0.000
204107.700,228314.000,450308.800,360681.800,200252.700,185013.100,178619.100,201150.200,0.000
201716.800,225709.500,442594.900,355803.500,198078.200,182902.500,176707.200,199087.500,0.000
199412.800,223303.900,435349.800,351039.900,196304.100,181018.800,174987.300,197166.600,0.000
197174.900,220827.700,428144.500,346156.900,194141.500,179022.800,173021.000,194875.400,0.000
195051.400,218288.200,421059.800,341438.700,191494.300,176883.400,170838.500,192363.900,0.000
193105.900,215972.700,414557.800,337286.200,189110.600,174920.400,168922.400,190253.700,0.000
191307.800,214023.900,408790.500,333633.000,187522.700,173344.100,167521.300,188759.200,0.000
189567.000,212236.800,403360.800,330025.800,186294.700,171956.300,166277.200,187373.800,0.000
187849.700,210339.000,397855.100,326236.600,184655.600,170439.700,164753.000,185582.300,0.000
186216.100,208352.100,392368.900,322553.700,182526.200,168765.300,163018.000,183562.600,0.000
184725.400,206550.100,387348.300,319352.900,180624.400,167227.700,161524.200,181915.900,0.000
183348.200,205072.600,382942.500,316576.500,179455.400,166034.100,160484.500,180835.500,0.000
182003.800,203723.500,378784.800,313796.700,178609.800,165005.000,159572.600,179827.400,0.000
180663.600,202252.100,374487.000,310800.200,177355.600,163834.500,158393.000,178428.700,0.000
179384.700,200670.000,370139.400,307852.100,175609.400,162495.500,156982.400,176791.500,0.000
178225.100,199241.300,366174.900,305327.300,174051.100,161271.300,155777.200,175478.200,0.000
177159.800,198113.400,362754.800,303184.300,173189.900,160358.600,155006.500,174691.500,0.000
176107.700,197090.600,359520.100,301007.500,172628.300,159592.800,154354.800,173969.100,0.000
175048.900,195933.800,356103.400,298598.800,171661.900,158679.000,153431.900,172854.100,0.000
174038.600,194662.800,352603.100,296214.800,170210.500,157597.500,152278.700,171491.900,0.000
173132.000,193526.600,349428.300,294215.700,168926.800,156615.400,151310.700,170436.500,0.000
172303.300,192656.000,346729.500,292553.900,168293.400,155914.100,150740.900,169868.900,0.000
171474.400,191880.200,344180.900,290837.300,167945.600,155352.100,150281.100,169362.100,0.000
170626.800,190962.900,341427.800,288872.300,167193.400,154636.400,149548.800,168469.000,0.000
169823.700,189923.500,338555.500,286908.400,165953.300,153739.500,148573.800,167320.200,0.000
169101.600,188992.800,335960.800,285285.300,164856.000,152920.700,147759.900,166442.100,0.000
168452.300,188321.600,333815.400,283987.200,164398.800,152386.300,147345.000,166050.300,0.000
167804.800,187746.700,331800.700,282631.000,164224.200,151985.500,147036.600,165715.200,0.000
167117.800,187012.000,329545.200,281002.600,163638.600,151414.800,146442.200,164978.900,0.000
166459.100,186141.700,327141.100,279354.200,162562.100,150654.300,145607.000,163986.400,0.000
165883.600,185380.300,324993.300,278039.700,161622.700,149973.800,144933.700,163265.500,0.000
165379.500,184874.100,323274.000,277037.700,161308.400,149577.700,144645.100,163012.300,0.000
164859.900,184433.800,321652.700,275952.200,161253.000,149279.300,144442.300,162798.300,0.000
164297.300,183839.900,319779.200,274582.500,160794.900,148831.000,143960.300,162194.400,0.000
163760.300,183113.400,317752.300,273187.200,159857.700,148190.400,143240.300,161330.500,0.000
163312.500,182496.800,315973.000,272113.500,159052.900,147628.700,142675.800,160726.300,0.000
162914.600,182105.300,314584.900,271318.100,158835.300,147317.000,142471.600,160570.400,0.000
162498.600,181783.000,313278.400,270439.400,158871.600,147114.900,142354.800,160453.200,0.000
162049.300,181316.900,311723.300,269288.600,158522.400,146761.400,141973.900,159955.400,0.000
161615.800,180705.500,309989.000,268097.700,157689.600,146219.800,141349.700,159199.800,0.000
161249.300,180181.800,308471.800,267210.300,156970.300,145739.300,140870.600,158689.700,0.000
160931.900,179883.500,307336.800,266595.600,156837.500,145506.800,140737.700,158611.800,0.000
160604.300,179661.500,306288.000,265895.000,156966.800,145385.000,140695.600,158576.000,0.000
160235.100,179282.500,304975.600,264917.300,156701.300,145104.300,140389.800,158165.600,0.000
159874.700,178757.400,303473.200,263884.400,155942.500,144628.200,139825.300,157474.000,0.000
159586.800,178323.400,302182.700,263141.600,155303.700,144223.600,139405.000,157034.400,0.000
159348.500,178107.700,301263.000,262672.500,155246.400,144056.600,139343.700,157041.000,0.000
159087.700,177952.000,300408.800,262111.600,155430.000,143988.000,139357.500,157068.000,0.000
158792.700,177651.500,299294.300,261270.500,155232.300,143771.100,139105.500,156719.900,0.000
158498.800,177195.000,297982.200,260366.500,154544.300,143351.500,138602.400,156109.600,0.000
158269.700,176824.800,296872.200,259748.900,153963.200,142993.600,138234.500,155727.000,0.000
158090.700,176677.500,296120.300,259397.600,153955.500,142883.000,138214.800,155775.300,0.000
157887.100,176588.700,295433.400,258948.900,154192.400,142873.600,138278.400,155861.800,0.000
157626.500,176332.900,294467.300,258207.700,154035.600,142695.200,138067.000,155568.300,0.000
157379.800,175943.400,293314.500,257410.600,153411.100,142336.900,137616.900,155008.400,0.000
157195.400,175636.200,292352.300,256889.000,152890.700,142032.400,137295.200,154677.900,0.000
157053.400,175532.800,291734.100,256623.800,152927.300,141961.600,137312.000,154769.500,0.000
156882.700,175474.100,291162.200,256255.300,153191.300,141973.600,137405.700,154890.400,0.000
156673.300,175269.200,290327.400,255606.200,153079.900,141832.600,137234.000,154632.300,0.000
156474.300,174926.600,289300.800,254898.700,152498.200,141511.400,136818.700,154103.700,0.000
156327.800,174657.300,288453.800,254459.000,152014.200,141240.600,136529.300,153811.600,0.000
156225.800,174596.100,287949.800,254275.200,152086.000,141202.500,136579.300,153938.600,0.000
156097.400,174586.600,287497.200,253993.300,152393.100,141258.800,136709.000,154092.800,0.000
155920.500,174414.500,286767.600,253419.500,152313.100,141149.300,136570.200,153875.300,0.000
155750.900,174104.100,285838.100,252775.100,151760.000,140857.600,136187.000,153392.300,0.000
155635.300,173871.600,285085.700,252396.100,151307.900,140607.600,135929.700,153131.900,0.000
155560.400,173844.000,284669.700,252265.900,151403.700,140590.800,136001.200,153283.900,0.000
155460.100,173861.600,284305.300,252041.300,151734.200,140665.900,136146.600,153464.000,0.000
155313.700,173724.800,283673.300,251533.800,151689.500,140587.000,136031.700,153272.100,0.000
155167.500,173448.100,282836.100,250945.500,151167.400,140317.500,135670.300,152807.800,0.000
155082.500,173252.000,282170.600,250622.700,150742.700,140097.600,135437.500,152578.600,0.000
155034.200,173248.100,281832.500,250543.700,150861.000,140104.400,135530.600,152750.000,0.000
154957.100,173293.300,281544.000,250368.700,151213.600,140198.700,135699.300,152948.100,0.000
154835.600,173187.900,280985.000,249909.900,151194.700,140142.600,135610.100,152787.300,0.000
154718.700,172946.700,280220.000,249374.900,150708.300,139909.300,135280.200,152362.400,0.000
154648.100,172766.600,279612.600,249087.200,150301.300,139707.900,135058.300,152142.200,0.000
154615.900,172780.500,279331.000,249045.700,150428.800,139725.300,135160.700,152327.200,0.000
154559.900,172847.000,279105.700,248914.800,150800.800,139835.600,135347.700,152558.700,0.000
154448.200,172757.900,278601.000,248485.000,150794.900,139801.300,135270.400,152410.600,0.000
154340.700,172521.600,277889.500,247978.800,150317.500,139567.300,134948.000,151991.300,0.000
154284.600,172352.600,277337.300,247730.300,149923.500,139368.700,134732.700,151771.100,0.000
154259.800,172381.700,277105.800,247726.100,150064.900,139399.100,134847.500,151972.700,0.000
154211.800,172463.500,276928.900,247630.000,150451.000,139524.000,135045.400,152212.300,0.000
154117.800,172391.500,276479.300,247245.100,150474.000,139492.100,134988.100,152086.500,0.000
154022.400,172168.300,275809.500,246770.500,150005.100,139266.800,134672.800,151678.900,0.000
153981.700,172014.700,275299.700,246548.300,149617.200,139084.600,134472.000,151479.700,0.000
153978.400,172056.900,275116.000,246572.000,149767.700,139126.400,134599.800,151699.000,0.000
153949.800,172152.200,274986.700,246501.800,150166.900,139263.400,134811.600,151955.200,0.000
153868.000,172096.200,274582.800,246138.500,150200.700,139249.400,134761.500,151833.400,0.000
153784.800,171890.600,273959.900,245690.200,149753.300,139039.900,134460.300,151442.700,0.000
153761.000,171756.100,273498.200,245498.400,149387.000,138874.300,134275.300,151265.000,0.000
153771.300,171814.400,273356.100,245553.900,149548.000,138926.900,134410.300,151487.800,0.000
153749.900,171928.700,273266.900,245516.200,149958.000,139078.300,134631.500,151757.000,0.000
153675.300,171882.800,272895.500,245180.000,150001.300,139069.300,134586.500,151645.000,0.000
153600.800,171683.100,272305.600,244756.800,149561.700,138866.000,134291.300,151263.500,0.000
153576.900,171548.700,271867.900,244576.600,149190.300,138707.700,134107.000,151077.100,0.000
153591.300,171610.400,271753.900,244643.400,149355.200,138766.500,134249.600,151301.600,0.000
153579.600,171735.700,271696.900,244620.700,149779.900,138929.200,134483.800,151580.200,0.000
153516.200,171705.500,271363.500,244304.400,149841.100,138940.200,134458.400,151488.000,0.000
153445.300,171513.500,270799.800,243891.800,149407.800,138741.700,134172.300,151110.600,0.000
153425.300,171386.100,270384.300,243726.500,149042.100,138580.900,133991.100,150933.200,0.000
153440.700,171452.300,270289.600,243813.600,149207.400,138640.200,134132.500,151159.400,0.000
153433.400,171578.600,270257.700,243808.200,149636.300,138804.900,134369.600,151440.000,0.000
153377.000,171555.400,269952.700,243505.600,149709.100,138818.500,134347.600,151354.800,0.000
153320.800,171378.300,269421.100,243114.700,149291.600,138632.000,134066.800,150984.900,0.000
153313.200,171250.700,269030.600,242968.900,148925.600,138466.300,133881.200,150806.100,0.000
153334.700,171317.500,268959.300,243068.000,149089.100,138520.300,134020.900,151040.100,0.000
153331.500,171453.000,268949.300,243075.300,149524.300,138688.800,134262.500,151338.000,0.000
153281.200,171443.400,268668.300,242791.300,149610.200,138718.300,134252.900,151270.600,0.000
153219.600,171263.100,268152.600,242406.100,149189.300,138529.000,133976.500,150901.600,0.000
153213.900,171141.000,267784.900,242267.500,148819.800,138369.900,133795.000,150726.000,0.000
153242.100,171213.400,267734.800,242378.400,148982.800,138433.200,133936.300,150963.200,0.000
153242.400,171354.700,267747.400,242405.300,149420.500,138608.500,134184.300,151252.800,0.000
153187.900,171343.200,267484.200,242135.900,149508.100,138636.400,134175.200,151180.800,0.000
153133.200,171169.600,266992.300,241768.300,149100.000,138457.500,133905.300,150817.300,0.000
153126.600,171043.200,266629.700,241634.700,148726.200,138299.100,133722.300,150630.600,0.000
153157.400,171118.400,266589.900,241755.200,148887.300,138365.500,133868.100,150864.100,0.000
153168.400,171269.900,266625.300,241794.800,149336.900,138549.200,134122.200,151168.700,0.000
153126.400,171269.800,266387.300,241536.500,149434.500,138579.900,134119.500,151107.500,0.000
153073.300,171103.700,265912.100,241169.600,149031.300,138404.200,133850.600,150750.300,0.000
153063.800,170980.600,265564.100,241039.800,148661.500,138246.300,133665.600,150566.900,0.000
153095.300,171057.000,265541.000,241165.800,148823.500,138311.200,133809.300,150802.800,0.000
153104.300,171205.500,265588.200,241210.700,149267.100,138483.300,134062.300,151105.500,0.000
153059.800,171207.600,265363.100,240960.600,149370.500,138519.900,134063.000,151044.800,0.000
153010.100,171045.000,264901.500,240609.300,148973.500,138348.100,133800.300,150689.100,0.000
153008.300,170926.100,264567.500,240492.100,148607.600,138195.800,133621.700,150512.100,0.000
153044.600,170998.800,264556.100,240626.000,148767.500,138252.400,133771.100,150749.600,0.000
153063.400,171154.200,264622.200,240691.100,149219.500,138440.000,134032.800,151065.400,0.000
153021.600,171155.300,264411.600,240452.800,149322.400,138472.500,134034.800,151015.300,0.000
152968.500,170986.200,263958.600,240097.400,148922.000,138297.700,133762.800,150660.700,0.000
152969.800,170870.900,263638.700,239978.600,148558.400,138143.700,133586.600,150479.400,0.000
153004.900,170951.800,263640.200,240119.600,148723.900,138211.400,133732.500,150712.600,0.000
153019.000,171106.000,263712.800,240187.200,149173.000,138395.800,133992.400,151020.700,0.000
152979.600,171108.200,263510.900,239953.400,149274.200,138428.700,134000.000,150968.700,0.000
152924.600,170938.400,263063.400,239609.200,148874.600,138249.000,133735.200,150616.300,0.000
152919.300,170817.800,262742.400,239498.900,148508.200,138090.100,133556.100,150435.200,0.000
152957.900,170898.600,262748.400,239644.700,148672.100,138152.900,133704.400,150669.900,0.000
152975.800,171053.200,262834.300,239714.300,149124.700,138336.400,133963.000,150979.100,0.000
152939.500,171057.400,262649.500,239488.100,149233.300,138378.700,133969.000,150926.900,0.000
152897.700,170900.200,262225.500,239153.800,148844.700,138210.000,133710.700,150580.300,0.000
152907.300,170794.700,261933.400,239055.400,148494.200,138070.600,133543.500,150417.300,0.000
152944.000,170874.900,261947.100,239197.900,148657.300,138138.400,133690.300,150653.200,0.000
152954.600,171021.600,262031.400,239258.400,149101.400,138315.200,133939.300,150951.000,0.000
152917.500,171026.500,261853.600,239032.200,149211.500,138353.700,133946.000,150902.700,0.000
152873.300,170871.100,261435.500,238702.500,148819.400,138189.900,133686.500,150553.800,0.000
152872.000,170757.900,261136.900,238600.400,148454.300,138036.400,133506.000,150375.400,0.000
152905.300,170837.700,261154.100,238746.100,148609.500,138101.700,133648.500,150606.900,0.000
152924.500,170999.400,261257.900,238824.800,149058.600,138291.000,133907.600,150916.300,0.000
152887.300,171010.200,261090.800,238607.900,149173.800,138335.900,133921.600,150871.100,0.000
152839.200,170851.600,260678.400,238278.800,148784.600,138165.800,133662.900,150527.300,0.000
152843.400,170736.300,260391.100,238183.400,148421.000,138012.500,133487.100,150352.100,0.000
152881.700,170810.500,260423.400,238339.800,148578.500,138074.700,133632.500,150587.400,0.000
152896.800,170964.800,260534.100,238425.500,149033.700,138257.800,133891.400,150903.400,0.000
152861.400,170977.500,260377.900,238217.200,149154.500,138309.700,133907.400,150866.600,0.000
152817.800,170818.300,259975.700,237892.700,148766.200,138143.900,133652.400,150519.500,0.000
152824.400,170704.800,259695.600,237796.900,148402.900,137984.200,133478.600,150341.400,0.000
152864.700,170782.300,259731.200,237951.000,148555.600,138046.400,133618.200,150569.800,0.000
152885.300,170940.500,259849.700,238040.100,149007.200,138228.900,133876.000,150887.000,0.000
152851.900,170959.600,259703.000,237834.000,149132.300,138276.100,133892.700,150851.100,0.000
152809.800,170811.100,259313.200,237514.900,148753.900,138126.700,133639.800,150512.900,0.000
152809.000,170696.400,259035.500,237417.600,148387.400,137971.600,133464.200,150340.400,0.000
152849.600,170782.500,259081.500,237574.100,148548.100,138037.300,133610.400,150564.500,0.000
152870.600,170941.700,259205.800,237665.500,148999.500,138225.200,133868.400,150873.500,0.000
152838.800,170953.500,259065.900,237472.900,149121.700,138273.600,133886.100,150843.100,0.000
152794.200,170793.100,258676.000,237162.100,148736.800,138110.300,133633.300,150498.200,0.000
152799.100,170677.100,258402.600,237067.200,148371.600,137961.000,133455.400,150315.800,0.000
152843.600,170764.300,258453.700,237233.700,148535.300,138032.300,133605.100,150557.400,0.000
152860.500,170916.600,258579.600,237326.900,148978.900,138212.600,133858.300,150864.500,0.000
152825.300,170925.100,258440.400,237127.000,149097.400,138255.500,133871.100,150823.000,0.000
152772.200,170763.100,258053.100,236803.900,148712.100,138089.700,133611.400,150479.000,0.000
152771.200,170650.000,257792.000,236714.300,148349.700,137943.400,133435.700,150302.800,0.000
152818.200,170736.400,257851.600,236890.100,148512.200,138017.600,133583.500,150541.100,0.000
152830.400,170880.600,257975.400,236981.900,148950.800,138189.800,133832.100,150838.900,0.000
152804.200,170893.800,257848.600,236793.300,149075.600,138237.900,133852.800,150808.300,0.000
152761.800,170743.500,257476.400,236480.300,148697.000,138078.400,133601.800,150464.900,0.000
152769.800,170639.600,257220.300,236398.000,148335.700,137932.500,133427.900,150287.700,0.000
152813.600,170724.100,257280.800,236571.800,148490.300,138000.000,133573.800,150521.400,0.000
152835.300,170882.600,257424.800,236675.800,148942.600,138185.700,133836.300,150835.700,0.000
152803.000,170893.500,257299.300,236482.900,149063.400,138229.500,133854.500,150801.000,0.000
152757.100,170740.300,256925.500,236167.000,148686.100,138071.500,133600.000,150460.600,0.000
152763.100,170634.100,256669.900,236080.200,148332.700,137929.000,133428.700,150288.000,0.000
152805.100,170716.400,256728.800,236250.500,148488.100,137996.200,133571.300,150518.300,0.000
152823.800,170870.300,256869.000,236358.400,148936.000,138177.200,133828.200,150834.200,0.000
152796.600,170887.000,256753.300,236177.800,149066.900,138227.100,133851.500,150811.600,0.000
152753.000,170733.000,256384.600,235865.700,148687.900,138064.200,133598.700,150460.100,0.000
152756.600,170625.500,256133.700,235778.200,148324.700,137920.300,133418.000,150269.400,0.000
152805.900,170715.500,256211.300,235959.700,148488.500,137996.800,133569.000,150507.900,0.000
152824.500,170870.300,256361.000,236068.900,148937.100,138182.000,133826.900,150826.400,0.000
152787.200,170876.600,256245.000,235886.600,149060.600,138222.800,133843.800,150788.100,0.000
152742.800,170723.600,255881.200,235577.900,148680.500,138059.000,133589.400,150442.700,0.000
152744.400,170612.500,255630.600,235481.100,148314.400,137912.900,133410.100,150259.300,0.000
152787.100,170696.100,255703.200,235656.700,148470.900,137984.100,133555.800,150494.800,0.000
152807.500,170849.400,255853.100,235769.800,148918.600,138161.800,133812.600,150814.600,0.000
152775.300,170862.300,255743.800,235592.900,149044.800,138205.300,133831.200,150780.500,0.000
152728.800,170709.300,255385.100,235286.900,148669.000,138047.200,133577.900,150434.100,0.000
152735.600,170600.900,255143.700,235207.400,148304.200,137902.100,133398.700,150250.000,0.000
152781.000,170686.700,255222.600,235388.100,148456.300,137971.100,133540.800,150479.600,0.000
152801.800,170844.900,255381.200,235504.500,148906.300,138161.100,133802.600,150800.400,0.000
152770.300,170857.500,255275.100,235329.800,149037.400,138202.300,133831.200,150779.300,0.000
152726.000,170706.000,254917.500,235023.300,148666.000,138046.100,133580.400,150432.500,0.000
152732.300,170597.700,254676.100,234942.000,148307.600,137904.700,133401.000,150249.300,0.000
152777.600,170683.600,254752.500,235117.600,148459.900,137972.700,133545.500,150482.100,0.000
152795.100,170836.500,254907.400,235228.500,148904.600,138149.800,133806.400,150801.500,0.000
152759.300,170847.200,254804.800,235052.100,149035.300,138198.000,133830.500,150773.200,0.000
152717.000,170700.000,254457.300,234750.300,148666.900,138042.900,133580.700,150437.400,0.000
152719.800,170588.600,254215.600,234666.900,148298.100,137897.300,133400.000,150250.000,0.000
152762.200,170666.800,254291.200,234849.500,148443.700,137964.600,133538.200,150475.000,0.000
152783.600,170818.800,254450.300,234972.500,148890.300,138141.200,133798.500,150793.900,0.000
152752.500,170830.700,254348.100,234802.900,149021.500,138182.400,133824.200,150772.000,0.000
152711.100,170684.000,253998.400,234504.900,148655.500,138033.300,133575.700,150432.700,0.000
152716.600,170580.700,253761.300,234419.800,148292.300,137892.400,133395.000,150241.800,0.000
152759.800,170663.800,253840.500,234595.500,148439.300,137961.500,133533.800,150466.400,0.000
152780.600,170815.300,254004.900,234712.500,148882.900,138141.000,133795.800,150786.900,0.000
152750.700,170827.200,253913.100,234542.600,149014.000,138186.500,133823.300,150765.700,0.000
152708.300,170680.400,253572.900,234246.600,148645.300,138033.000,133574.600,150426.300,0.000
152708.700,170573.700,253337.300,234167.300,148279.800,137885.100,133391.700,150235.600,0.000
152755.800,170657.500,253424.300,234352.500,148431.600,137959.100,133528.700,150461.800,0.000
152772.900,170806.600,253590.200,234480.700,148878.600,138136.200,133787.500,150781.200,0.000
152736.000,170816.200,253496.400,234316.800,149014.100,138176.300,133811.900,150758.000,0.000
152690.200,170664.200,253152.300,234017.700,148647.100,138021.100,133562.700,150418.200,0.000
152694.100,170548.800,252913.900,233935.700,148272.600,137871.300,133377.100,150227.500,0.000
152741.000,170633.300,253000.300,234119.500,148411.800,137935.200,133514.100,150455.700,0.000
152761.800,170794.400,253176.100,234246.800,148860.300,138116.400,133775.700,150778.500,0.000
152732.500,170819.200,253100.300,234085.500,149011.300,138175.200,133811.800,150760.400,0.000
152688.300,170671.300,252764.200,233787.100,148646.300,138023.500,133564.100,150422.100,0.000
152694.000,170555.700,252530.300,233705.400,148271.600,137873.600,133378.000,150228.700,0.000
152734.900,170626.400,252609.500,233884.300,148399.000,137924.600,133504.600,150438.000,0.000
152757.500,170785.100,252789.100,234014.500,148848.000,138108.500,133766.100,150754.900,0.000
152734.300,170813.700,252720.500,233864.500,149011.000,138172.000,133805.100,150745.500,0.000
152695.300,170665.500,252391.000,233578.900,148655.500,138020.400,133561.800,150414.600,0.000
152705.000,170548.400,252160.900,233501.900,148280.400,137865.100,133375.300,150223.900,0.000
152746.000,170614.500,252242.800,233679.100,148402.200,137919.000,133498.000,150432.500,0.000
152768.100,170775.800,252427.300,233810.300,148854.200,138109.100,133763.200,150758.800,0.000
152737.600,170805.600,252363.000,233657.100,149012.600,138161.400,133809.600,150757.500,0.000
152692.900,170660.900,252036.000,233371.800,148658.100,138023.700,133567.100,150426.300,0.000
152692.200,170539.000,251799.400,233290.900,148273.200,137863.700,133373.200,150228.200,0.000
152734.300,170613.200,251884.400,233476.700,148391.500,137920.900,133499.600,150435.800,0.000
152758.400,170781.300,252074.500,233612.600,148845.500,138113.200,133765.300,150765.000,0.000
152727.300,170813.700,252009.000,233449.300,149009.800,138178.600,133807.300,150758.700,0.000
152679.000,170661.400,251676.700,233152.300,148650.500,138028.300,133561.000,150417.800,0.000
152684.700,170539.400,251442.000,233066.800,148265.200,137865.300,133367.900,150208.800,0.000
152729.600,170610.300,251530.300,233251.000,148385.700,137922.600,133495.500,150421.900,0.000
152755.800,170775.000,251723.900,233392.400,148838.400,138112.100,133763.800,150756.100,0.000
152729.600,170808.300,251668.300,233244.400,149006.500,138177.300,133810.400,150761.300,0.000
152689.300,170662.300,251344.400,232952.100,148652.900,138027.800,133562.000,150421.100,0.000
152689.300,170536.100,251105.700,232865.800,148261.000,137866.500,133365.800,150214.700,0.000
152729.100,170604.700,251191.900,233049.900,148375.300,137916.100,133489.000,150427.700,0.000
152751.300,170770.500,251385.400,233190.500,148832.800,138103.800,133756.200,150758.900,0.000
152717.900,170797.100,251321.800,233034.700,148997.200,138160.400,133796.300,150753.500,0.000
152675.900,170651.800,251001.900,232745.000,148645.300,138013.800,133551.000,150418.000,0.000
152678.100,170530.800,250771.900,232660.400,148256.600,137856.000,133353.000,150211.200,0.000
152725.100,170605.400,250863.100,232848.800,148376.100,137913.000,133483.100,150424.600,0.000
152754.000,170773.700,251062.200,232996.800,148830.100,138096.600,133754.800,150758.800,0.000
152729.000,170807.700,251011.800,232847.000,148996.000,138161.000,133797.600,150754.800,0.000
152689.000,170662.400,250695.800,232559.400,148643.500,138018.300,133555.300,150424.300,0.000
152695.100,170544.700,250470.300,232479.200,148253.700,137856.500,133362.000,150217.200,0.000
152735.900,170615.400,250557.000,232661.600,148368.800,137908.300,133482.200,150418.900,0.000
152759.300,170782.700,250754.400,232808.900,148826.200,138094.100,133753.300,150754.600,0.000
152728.200,170816.400,250705.800,232665.500,149003.500,138161.000,133803.300,150758.600,0.000
152683.200,170671.300,250388.000,232378.400,148657.600,138014.900,133562.500,150421.900,0.000
152686.000,170549.100,250155.500,232298.200,148272.200,137861.800,133371.300,150215.400,0.000
152729.100,170619.600,250243.500,232483.000,148385.700,137917.500,133492.800,150423.400,0.000
152752.800,170780.100,250442.000,232628.400,148836.300,138101.700,133755.400,150750.700,0.000
152725.000,170812.000,250398.400,232490.500,149008.500,138166.600,133806.100,150756.300,0.000
152681.100,170668.000,250083.800,232200.900,148657.900,138016.400,133568.200,150425.100,0.000
152686.400,170553.600,249860.000,232119.400,148275.800,137869.600,133377.800,150227.200,0.000
152731.200,170621.500,249952.600,232303.400,148387.500,137922.400,133498.000,150431.400,0.000
152754.200,170776.400,250150.200,232450.500,148832.600,138100.800,133762.100,150760.900,0.000
152724.700,170805.900,250103.300,232311.600,148999.100,138168.500,133810.200,150765.700,0.000
152670.200,170650.800,249778.200,232004.500,148639.200,138006.100,133561.400,150418.000,0.000
152667.200,170529.300,249545.800,231914.600,148247.300,137847.100,133362.800,150206.200,0.000
152713.700,170607.800,249641.800,232106.300,148361.800,137906.500,133489.200,150415.700,0.000
152740.300,170772.000,249843.200,232258.000,148811.100,138094.100,133754.100,150746.100,0.000
152710.500,170798.400,249796.700,232120.500,148974.400,138150.200,133799.700,150751.300,0.000
152669.700,170653.000,249490.500,231839.000,148630.000,138002.600,133560.700,150418.000,0.000
152676.100,170533.200,249266.500,231757.500,148244.700,137848.700,133364.900,150206.900,0.000
152722.000,170601.000,249359.200,231941.000,148354.500,137899.100,133484.700,150412.200,0.000
152747.900,170756.300,249563.000,232091.000,148799.900,138077.400,133753.400,150743.400,0.000
152722.000,170786.100,249523.200,231956.800,148969.100,138143.500,133803.300,150751.800,0.000
152680.600,170647.600,249217.400,231671.700,148625.700,138000.800,133565.800,150423.300,0.000
152676.900,170530.000,248990.300,231581.500,148237.800,137845.500,133366.100,150208.000,0.000
152721.200,170603.900,249087.000,231770.500,148348.000,137899.800,133483.800,150406.500,0.000
152749.700,170767.200,249297.100,231925.800,148795.800,138090.400,133751.500,150739.400,0.000
152719.400,170795.000,249256.000,231784.000,148960.400,138150.300,133798.100,150741.800,0.000
152675.800,170653.300,248949.700,231498.000,148615.000,138003.200,133561.400,150417.900,0.000
152673.800,170528.900,248722.100,231409.700,148224.600,137844.200,133359.500,150211.400,0.000
152715.000,170595.000,248814.600,231594.100,148330.300,137895.300,133475.200,150403.600,0.000
152743.100,170754.500,249026.200,231756.200,148780.900,138072.600,133740.600,150735.300,0.000
152719.500,170787.800,248997.700,231633.600,148963.500,138141.200,133796.700,150753.600,0.000
152684.200,170649.400,248701.300,231357.500,148629.400,138005.000,133565.900,150432.200,0.000
152690.000,170536.800,248482.700,231273.700,148243.600,137858.700,133375.200,150224.800,0.000
152736.300,170610.700,248580.300,231464.000,148353.300,137912.900,133500.400,150434.700,0.000
152761.400,170769.400,248788.100,231619.700,148798.800,138090.700,133768.000,150762.200,0.000
152728.400,170796.900,248751.500,231480.900,148967.200,138148.000,133812.000,150760.200,0.000
152682.900,170652.800,248449.000,231198.400,148626.700,138003.300,133571.200,150433.200,0.000
152687.600,170536.400,248227.200,231120.200,148238.100,137853.400,133369.400,150222.600,0.000
152724.500,170591.900,248311.700,231299.100,148328.600,137879.300,133477.500,150411.900,0.000
152744.000,170741.200,248517.300,231455.700,148769.200,138056.900,133732.200,150737.400,0.000
152720.000,170775.700,248490.700,231335.800,148953.400,138128.500,133786.700,150752.400,0.000
152679.200,170639.300,248192.800,231050.100,148616.200,137987.700,133552.800,150423.300,0.000
152677.100,170517.200,247965.700,230958.700,148220.800,137827.600,133348.000,150198.500,0.000
152721.300,170582.900,248061.000,231147.100,148319.400,137870.900,133460.800,150396.000,0.000
152747.900,170746.400,248276.800,231309.300,148772.500,138056.800,133730.000,150731.900,0.000
152720.500,170787.800,248253.400,231180.800,148963.400,138131.400,133790.000,150750.700,0.000
152679.000,170655.500,247960.800,230892.500,148635.800,138001.100,133561.800,150429.700,0.000
152680.800,170533.600,247737.900,230801.100,148244.500,137847.300,133361.800,150215.300,0.000
152724.100,170595.000,247827.400,230985.100,148333.700,137887.200,133474.500,150409.500,0.000
152750.200,170752.400,248040.000,231148.200,148779.600,138071.700,133743.400,150745.600,0.000
152726.900,170793.600,248024.600,231030.100,148975.500,138149.400,133805.100,150765.200,0.000
152680.000,170649.100,247730.000,230746.500,148641.400,138007.000,133570.300,150440.000,0.000
152673.000,170514.100,247499.700,230652.900,148233.100,137841.000,133360.300,150219.300,0.000
152713.000,170573.200,247588.300,230841.600,148318.000,137878.400,133468.100,150410.800,0.000
152732.500,170736.000,247800.700,231005.500,148766.600,138061.600,133736.400,150739.500,0.000
152699.800,170777.400,247780.500,230884.900,148961.800,138137.900,133798.900,150766.900,0.000
152653.400,170638.200,247486.600,230606.100,148632.500,137999.100,133568.600,150446.300,0.000
152646.700,170502.900,247251.900,230509.800,148224.100,137828.800,133353.100,150211.300,0.000
152686.800,170565.100,247334.500,230686.500,148304.100,137868.900,133456.300,150392.700,0.000
152715.700,170738.300,247552.800,230852.500,148757.300,138062.600,133730.800,150732.100,0.000
152690.900,170783.400,247539.400,230729.300,148957.000,138141.500,133795.100,150755.400,0.000
152656.100,170650.400,247255.400,230449.300,148637.400,138007.000,133566.500,150434.800,0.000
152660.600,170521.600,247032.000,230362.600,148233.700,137842.100,133354.700,150209.000,0.000
152707.100,170577.900,247125.500,230558.300,148315.700,137873.200,133462.500,150398.300,0.000
152732.900,170735.000,247348.700,230732.000,148767.000,138056.700,133734.600,150741.300,0.000
152701.300,170772.700,247335.500,230615.400,148967.000,138134.100,133796.500,150764.400,0.000
152654.500,170631.800,247040.900,230332.600,148640.100,137995.800,133563.400,150438.000,0.000
152652.400,170504.800,246809.000,230235.900,148235.500,137840.400,133352.500,150213.000,0.000
152699.800,170567.800,246902.700,230425.100,148316.300,137868.400,133460.800,150404.800,0.000
152730.200,170735.200,247127.300,230597.000,148763.400,138054.600,133729.700,150744.000,0.000
152703.000,170778.600,247115.400,230475.600,148958.000,138132.800,133791.900,150769.200,0.000
152663.600,170645.900,246831.300,230191.800,148632.000,138000.000,133563.700,150440.000,0.000
152668.300,170524.100,246612.300,230106.700,148232.400,137840.300,133357.000,150212.600,0.000
152715.900,170585.800,246707.000,230299.100,148312.000,137878.300,133460.600,150393.400,0.000
152743.300,170743.500,246927.400,230469.000,148758.600,138060.300,133725.000,150730.500,0.000
152720.600,170781.300,246917.900,230358.300,148959.100,138132.400,133792.900,150756.200,0.000
152678.600,170642.900,246633.900,230082.900,148638.100,137995.300,133568.800,150439.900,0.000
152676.800,170511.100,246407.500,229988.100,148233.800,137829.000,133358.600,150214.600,0.000
152722.000,170574.200,246500.700,230174.800,148316.700,137873.500,133460.800,150394.900,0.000
152749.000,170740.000,246725.500,230347.400,148767.800,138061.300,133731.800,150737.000,0.000
152719.500,170786.100,246719.800,230237.300,148972.900,138140.600,133805.000,150774.100,0.000
152669.300,170648.100,246432.400,229958.200,148650.800,138002.400,133576.800,150447.700,0.000
152665.200,170520.100,246205.200,229861.200,148246.300,137833.200,133362.900,150212.700,0.000
152704.400,170580.300,246296.000,230044.300,148326.200,137871.300,133461.700,150393.500,0.000
152734.300,170746.900,246522.400,230220.500,148778.500,138056.400,133735.500,150735.700,0.000
152709.900,170787.600,246515.000,230110.300,148981.500,138131.800,133806.700,150770.500,0.000
152660.600,170645.900,246224.700,229822.600,148656.600,137990.800,133577.100,150448.800,0.000
152657.400,170520.700,246002.200,229724.500,148253.900,137829.400,133366.100,150219.700,0.000
152699.200,170578.500,246096.000,229907.500,148329.600,137866.400,133467.100,150405.000,0.000
152728.000,170736.600,246322.600,230076.900,148767.600,138040.700,133728.600,150734.600,0.000
152703.400,170784.100,246322.000,229970.900,148972.900,138120.300,133800.000,150772.300,0.000
152654.600,170649.000,246039.800,229695.600,148658.700,137991.500,133578.600,150460.000,0.000
152649.200,170520.900,245811.800,229595.700,148250.000,137827.900,133363.400,150219.200,0.000
152691.400,170575.600,245901.300,229781.700,148318.400,137867.700,133463.300,150392.600,0.000
152719.900,170735.700,246125.300,229964.700,148765.100,138051.000,133737.200,150735.700,0.000
152691.600,170777.000,246118.100,229859.500,148970.300,138131.600,133805.200,150765.900,0.000
152650.300,170642.600,245836.000,229580.000,148652.200,137993.500,133574.000,150436.700,0.000
152648.000,170512.300,245610.700,229479.500,148244.200,137828.200,133358.800,150199.500,0.000
152694.700,170570.300,245703.300,229666.500,148316.500,137861.300,133455.400,150377.300,0.000
152729.000,170733.400,245930.700,229842.500,148760.300,138041.300,133724.100,150719.700,0.000
152700.600,170778.100,245931.600,229732.900,148971.100,138121.500,133795.000,150759.000,0.000
152651.900,170644.100,245657.700,229457.900,148657.500,137987.900,133573.900,150446.100,0.000
152652.500,170527.300,245440.700,229366.200,148259.000,137827.900,133365.900,150217.600,0.000
152696.700,170588.900,245536.100,229557.900,148332.500,137865.800,133464.300,150399.200,0.000
152720.800,170745.100,245763.600,229735.400,148772.700,138042.400,133731.800,150741.600,0.000
152694.700,170787.800,245764.400,229633.100,148979.400,138123.000,133806.100,150775.700,0.000
152647.800,170654.100,245479.500,229355.800,148661.500,137987.500,133578.600,150457.300,0.000
152648.100,170528.600,245254.500,229260.400,148257.000,137827.500,133367.300,150224.800,0.000
152697.200,170585.600,245349.400,229448.600,148325.200,137867.000,133466.100,150404.700,0.000
152726.500,170739.400,245578.500,229624.800,148764.400,138034.900,133733.400,150743.100,0.000
152704.500,170781.500,245585.200,229521.800,148975.500,138113.000,133805.100,150780.700,0.000
152662.100,170649.600,245311.800,229245.000,148663.200,137983.600,133578.900,150464.500,0.000
152660.700,170526.700,245093.400,229148.700,148260.300,137825.900,133362.400,150230.500,0.000
152705.700,170580.900,245184.600,229334.700,148327.700,137848.900,133455.900,150404.400,0.000
152732.000,170736.000,245409.100,229510.300,148766.300,138026.400,133719.400,150738.400,0.000
152702.000,170774.300,245405.500,229405.700,148970.000,138101.400,133790.100,150771.100,0.000
152655.200,170641.800,245128.100,229130.300,148658.400,137970.800,133572.300,150456.300,0.000
152658.100,170521.200,244908.000,229034.300,148254.900,137811.100,133362.800,150223.900,0.000
152698.500,170572.000,244994.000,229211.000,148311.700,137841.400,133450.100,150391.400,0.000
152726.500,170726.800,245224.400,229389.400,148749.600,138019.800,133718.200,150733.500,0.000
152702.100,170772.500,245234.300,229292.700,148960.300,138099.500,133789.900,150772.600,0.000
152653.800,170638.400,244959.100,229015.100,148650.300,137973.500,133565.900,150449.400,0.000
152650.400,170511.300,244731.800,228915.700,148241.400,137814.300,133355.800,150217.200,0.000
152690.400,170562.700,244815.400,229100.300,148300.200,137837.400,133451.300,150391.400,0.000
152721.800,170725.000,245048.100,229288.900,148744.800,138020.300,133724.500,150734.900,0.000
152699.400,170771.800,245058.500,229190.600,148963.900,138104.000,133804.600,150781.300,0.000
152655.600,170642.100,244784.300,228911.100,148660.900,137977.800,133583.300,150467.600,0.000
152655.400,170518.400,244561.000,228802.800,148256.000,137816.700,133369.000,150224.900,0.000
152698.000,170573.000,244650.600,228981.700,148317.600,137852.300,133461.900,150397.200,0.000
152726.300,170731.800,244883.000,229161.500,148755.300,138036.300,133730.000,150739.600,0.000
152699.700,170778.200,244894.900,229063.400,148967.800,138115.700,133804.200,150783.600,0.000
152652.200,170644.000,244621.400,228789.200,148658.600,137983.500,133584.000,150473.200,0.000
152650.900,170512.300,244394.300,228687.500,148244.700,137816.200,133364.700,150228.700,0.000
152691.200,170556.200,244477.900,228866.900,148291.600,137840.200,133450.500,150394.600,0.000
152720.100,170712.500,244709.700,229051.100,148728.300,138019.200,133713.400,150734.000,0.000
152701.300,170762.800,244727.700,228964.000,148951.000,138103.200,133795.400,150780.900,0.000
152661.500,170638.600,244461.400,228693.000,148652.100,137983.500,133573.800,150461.800,0.000
152659.700,170509.900,244234.400,228584.400,148243.400,137814.600,133351.000,150217.400,0.000
152702.200,170562.100,244318.300,228762.300,148297.800,137845.100,133436.300,150381.700,0.000
152726.700,170720.000,244549.900,228945.400,148737.200,138025.100,133702.300,150718.400,0.000
152701.300,170770.900,244569.000,228854.000,148961.600,138111.500,133784.000,150770.900,0.000
152659.300,170646.200,244303.200,228585.400,148666.300,137990.400,133569.600,150465.300,0.000
152657.400,170520.000,244076.000,228482.300,148258.300,137827.000,133355.500,150225.300,0.000
152691.600,170568.000,244156.700,228660.900,148306.500,137848.800,133443.600,150386.700,0.000
152719.700,170727.500,244393.000,228854.400,148748.100,138030.800,133716.500,150731.000,0.000
152696.800,170773.700,244409.800,228754.600,148971.000,138113.000,133799.600,150783.400,0.000
152650.800,170641.300,244141.000,228479.900,148666.600,137982.900,133581.100,150472.500,0.000
152648.500,170510.800,243913.100,228376.300,148246.600,137815.400,133362.400,150224.800,0.000
152692.900,170558.400,243997.200,228556.000,148289.600,137837.800,133447.100,150384.400,0.000
152723.800,170719.200,244235.500,228745.100,148728.400,138018.800,133717.000,150727.600,0.000
152694.500,170768.900,244253.100,228655.000,148952.800,138105.400,133801.000,150782.500,0.000
152644.400,170641.100,243984.100,228377.600,148656.100,137991.500,133578.500,150465.100,0.000
152641.100,170511.800,243756.900,228266.900,148244.000,137828.600,133360.900,150215.900,0.000
152686.600,170561.000,243842.400,228444.900,148287.800,137843.200,133443.300,150369.200,0.000
152716.800,170718.400,244077.500,228633.700,148727.000,138023.900,133708.200,150709.000,0.000
152694.900,170772.600,244104.600,228555.000,148959.300,138107.600,133796.500,150768.600,0.000
152653.600,170644.600,243845.800,228295.000,148668.100,137985.600,133583.800,150464.300,0.000
152648.900,170508.900,243616.200,228185.700,148249.600,137812.900,133360.300,150213.600,0.000
152699.300,170564.900,243707.400,228371.500,148296.300,137838.200,133448.200,150380.400,0.000
152729.100,170723.100,243946.100,228560.700,148735.400,138016.000,133715.700,150724.800,0.000
152702.900,170772.300,243967.400,228469.200,148961.500,138101.300,133799.900,150779.800,0.000
152651.800,170643.300,243701.200,228190.700,148665.600,137977.000,133583.100,150468.500,0.000
152646.000,170514.500,243472.900,228081.900,148253.900,137816.200,133365.700,150223.800,0.000
152685.000,170561.400,243549.900,228253.600,148292.200,137836.300,133438.800,150374.900,0.000
152714.200,170719.300,243784.900,228440.300,148726.600,138012.600,133704.400,150714.100,0.000
152697.100,170777.100,243818.000,228363.700,148966.200,138106.700,133799.500,150778.800,0.000
152655.500,170653.000,243559.600,228094.400,148677.200,137990.100,133589.200,150476.700,0.000
152647.500,170518.000,243326.600,227982.300,148257.800,137824.800,133364.400,150227.700,0.000
152688.700,170560.300,243407.300,228164.800,148290.100,137836.300,133442.300,150383.500,0.000
152723.000,170718.400,243649.600,228361.300,148724.700,138015.400,133711.500,150720.700,0.000
152696.300,170764.500,243676.800,228275.900,148955.300,138100.600,133800.100,150778.300,0.000
152644.900,170635.300,243413.900,227999.700,148661.800,137974.900,133586.500,150473.700,0.000
152636.500,170504.300,243183.100,227886.300,148246.400,137808.500,133361.600,150221.900,0.000
152680.800,170558.000,243269.600,228066.800,148288.500,137832.100,133442.900,150380.700,0.000
152715.100,170720.300,243510.900,228260.400,148726.100,138010.900,133710.600,150721.500,0.000
152694.700,170774.700,243541.800,228179.800,148963.300,138100.100,133801.000,150779.600,0.000
152650.300,170647.200,243282.600,227910.300,148674.500,137977.800,133589.400,150476.600,0.000
152642.200,170513.300,243050.700,227798.300,148254.900,137812.900,133364.500,150222.600,0.000
152682.000,170557.900,243132.200,227983.200,148290.600,137836.000,133444.800,150380.300,0.000
152708.700,170710.700,243367.900,228170.400,148723.800,138012.100,133711.900,150720.600,0.000
152683.200,170758.800,243396.900,228085.300,148958.400,138102.600,133801.000,150781.700,0.000
152638.400,170634.000,243141.100,227817.300,148670.500,137979.400,133591.200,150479.500,0.000
152627.700,170499.200,242908.800,227699.000,148250.500,137809.300,133362.900,150224.400,0.000
152671.700,170544.500,242988.800,227872.600,148280.000,137828.900,133436.700,150372.700,0.000
152710.600,170708.900,243232.000,228072.600,148712.300,138008.100,133708.000,150722.600,0.000
152698.800,170769.900,243272.100,228004.300,148954.500,138104.400,133808.100,150793.400,0.000
152658.000,170646.900,243017.900,227735.800,148672.500,137988.800,133598.900,150489.200,0.000
152650.800,170515.700,242787.300,227615.000,148250.900,137825.400,133373.400,150231.400,0.000
152693.400,170563.000,242869.300,227789.000,148282.700,137841.700,133449.800,150381.700,0.000
152724.000,170722.600,243111.800,227987.000,148717.700,138027.900,133712.900,150723.100,0.000
152698.500,170769.800,243143.400,227910.800,148956.600,138103.700,133807.000,150788.500,0.000
152652.300,170643.300,242887.300,227642.300,148682.000,137986.200,133604.800,150492.400,0.000
152648.200,170511.200,242657.200,227529.700,148265.100,137826.200,133381.600,150237.100,0.000
152695.400,170563.300,242735.800,227707.800,148295.500,137851.200,133457.900,150382.300,0.000
152726.000,170722.100,242974.900,227904.900,148729.900,138026.700,133726.900,150724.300,0.000
152708.300,170779.000,243010.700,227835.800,148975.300,138119.600,133824.400,150793.900,0.000
152667.700,170660.500,242762.600,227569.000,148700.200,138007.800,133621.200,150497.500,0.000
152658.100,170524.600,242533.000,227449.500,148278.600,137834.200,133393.400,150238.600,0.000
152695.500,170562.000,242609.300,227619.500,148298.700,137847.100,133459.700,150376.500,0.000
152724.700,170718.200,242852.100,227820.500,148732.600,138024.800,133729.800,150721.200,0.000
152702.800,170773.000,242891.900,227750.500,148979.700,138112.200,133828.000,150795.400,0.000
152651.300,170640.600,242632.500,227479.900,148696.700,137986.600,133616.600,150498.800,0.000
152639.200,170498.600,242392.800,227357.000,148270.600,137812.700,133382.800,150229.600,0.000
152682.800,170539.000,242464.500,227527.000,148291.000,137829.400,133451.500,150372.100,0.000
152718.000,170698.400,242706.100,227729.500,148721.500,138006.800,133721.300,150720.100,0.000
152697.600,170756.300,242746.600,227665.800,148969.900,138100.500,133816.400,150793.700,0.000
152654.300,170629.100,242494.800,227399.700,148691.500,137980.500,133611.500,150496.300,0.000
152644.500,170494.400,242261.200,227274.900,148267.700,137814.300,133382.700,150229.600,0.000
152686.700,170540.600,242342.900,227452.100,148289.900,137835.000,133454.500,150372.800,0.000
152720.400,170701.400,242591.700,227654.000,148719.000,138008.100,133718.900,150715.200,0.000
152699.500,170759.600,242636.900,227585.400,148968.200,138106.600,133817.400,150786.900,0.000
152653.400,170640.400,242387.700,227319.800,148697.600,137992.800,133618.600,150493.900,0.000
152642.400,170509.100,242151.600,227195.900,148276.400,137828.500,133391.100,150234.800,0.000
152681.700,170550.900,242223.300,227363.300,148291.000,137842.600,133459.000,150374.800,0.000
152712.800,170704.500,242465.800,227564.100,148717.700,138014.000,133724.800,150721.800,0.000
152695.700,170761.300,242513.000,227501.000,148968.600,138109.500,133826.600,150804.500,0.000
152646.000,170635.800,242257.900,227232.000,148689.500,137989.000,133616.100,150499.300,0.000
152631.400,170496.300,242019.300,227108.700,148261.000,137814.600,133383.000,150233.300,0.000
152669.800,170535.800,242095.200,227277.400,148273.500,137826.700,133446.800,150369.800,0.000
152701.600,170690.500,242339.200,227475.800,148696.000,137995.300,133704.900,150706.800,0.000
152683.800,170750.000,242386.400,227413.000,148946.900,138095.500,133802.400,150789.200,0.000
152637.300,170627.700,242139.400,227146.100,148675.100,137979.500,133601.200,150494.200,0.000
152625.600,170486.700,241902.800,227019.600,148251.600,137799.100,133369.300,150224.400,0.000
152666.300,170524.000,241971.300,227185.600,148266.000,137818.700,133428.800,150356.800,0.000
152705.300,170686.500,242219.100,227396.500,148701.300,137998.200,133700.800,150709.900,0.000
152682.200,170741.800,242261.900,227334.400,148951.400,138090.700,133801.400,150789.000,0.000
152638.800,170625.400,242014.800,227073.300,148683.200,137981.900,133605.700,150499.300,0.000
152631.200,170494.400,241784.000,226957.400,148261.400,137814.000,133382.700,150238.400,0.000
152665.600,170532.100,241851.100,227119.300,148266.500,137823.800,133440.700,150363.000,0.000
152699.800,170694.700,242098.700,227327.200,148699.800,137999.400,133709.000,150708.300,0.000
152679.800,170755.400,242149.800,227270.100,148958.100,138095.200,133815.800,150794.200,0.000
152632.800,170636.000,241904.600,227010.200,148695.700,137981.600,133618.600,150506.000,0.000
152622.700,170496.700,241668.300,226881.200,148273.600,137811.700,133384.800,150234.500,0.000
152664.900,170531.000,241734.800,227041.500,148278.900,137822.300,133442.700,150362.300,0.000
152702.000,170688.300,241981.000,227250.500,148705.700,137994.700,133704.900,150706.800,0.000
152685.400,170750.400,242032.100,227194.700,148963.600,138087.900,133808.500,150791.700,0.000
152635.500,170626.000,241781.300,226926.200,148693.700,137971.400,133600.200,150497.800,0.000
152624.300,170492.500,241547.100,226798.700,148267.000,137806.900,133368.100,150228.100,0.000
152666.400,170533.200,241618.900,226969.100,148273.100,137819.000,133426.300,150355.500,0.000
152699.800,170686.300,241865.000,227173.800,148695.800,137988.000,133690.300,150701.500,0.000
152679.800,170745.300,241918.000,227112.900,148953.100,138083.100,133798.600,150787.900,0.000
152631.600,170619.600,241670.800,226842.300,148686.300,137969.900,133598.300,150491.500,0.000
152620.100,170481.600,241433.700,226714.700,148258.800,137802.600,133365.400,150219.000,0.000
152656.900,170517.700,241497.300,226879.800,148256.500,137807.100,133423.300,150342.700,0.000
152691.100,170674.600,241742.600,227088.600,148680.800,137981.800,133691.500,150689.100,0.000
152672.900,170733.000,241794.000,227034.100,148939.200,138076.800,133800.300,150780.700,0.000
152624.800,170613.200,241545.000,226764.700,148675.900,137966.800,133601.200,150489.500,0.000
152615.400,170480.900,241309.400,226632.200,148249.000,137794.800,133364.300,150214.600,0.000
152654.500,170516.700,241380.700,226796.500,148249.300,137799.100,133416.300,150336.800,0.000
152695.600,170677.000,241638.600,227015.300,148679.700,137977.100,133684.300,150686.300,0.000
152681.000,170740.900,241702.200,226966.000,148949.500,138078.100,133799.300,150780.900,0.000
152635.100,170625.200,241462.200,226702.700,148694.800,137968.500,133607.700,150494.700,0.000
152625.900,170493.500,241228.800,226575.100,148275.100,137802.500,133380.100,150229.900,0.000
152665.800,170536.200,241298.400,226741.600,148278.000,137814.000,133439.300,150359.800,0.000
152694.300,170691.200,241540.200,226946.700,148701.600,137987.300,133702.000,150705.100,0.000
152670.600,170747.600,241591.300,226892.300,148961.500,138091.100,133807.100,150787.600,0.000
152620.800,170619.000,241342.900,226620.600,148693.900,137964.700,133606.600,150498.200,0.000
152619.400,170484.500,241111.400,226494.500,148274.200,137798.100,133375.800,150233.600,0.000
152663.600,170522.600,241181.200,226655.500,148272.700,137811.700,133428.700,150352.400,0.000
152698.200,170676.000,241427.300,226859.600,148687.200,137982.700,133687.700,150685.500,0.000
152681.600,170742.600,241488.600,226808.400,148953.500,138082.700,133803.300,150785.500,0.000
152634.600,170628.100,241248.500,226545.100,148698.000,137978.400,133611.500,150499.000,0.000
152621.500,170494.700,241010.400,226419.000,148274.000,137811.600,133382.100,150232.400,0.000
152659.900,170535.600,241076.500,226583.300,148270.800,137822.900,133433.500,150345.800,0.000
152700.700,170699.700,241331.600,226799.400,148698.900,138000.900,133702.400,150692.700,0.000
152683.700,170761.300,241393.000,226750.000,148968.000,138099.500,133815.900,150791.500,0.000
152640.000,170644.000,241157.500,226487.500,148716.100,137992.000,133622.100,150503.900,0.000
152625.000,170499.400,240916.900,226352.500,148284.900,137814.800,133386.100,150232.600,0.000
152658.200,170526.800,240976.700,226511.800,148271.700,137818.700,133431.400,150348.700,0.000
152687.500,170677.800,241220.000,226718.900,148686.800,137995.900,133689.600,150689.400,0.000
152665.800,170739.200,241284.300,226670.500,148956.400,138100.300,133804.200,150787.400,0.000
152621.000,170627.300,241050.400,226410.100,148710.200,138003.300,133614.200,150507.100,0.000
152610.500,170485.100,240805.500,226273.400,148276.500,137827.500,133377.600,150237.100,0.000
152657.500,170522.900,240869.800,226437.000,148271.500,137838.200,133430.400,150346.700,0.000
152694.400,170678.000,241120.300,226650.800,148694.800,138012.100,133696.400,150697.500,0.000
152676.900,170737.300,241185.800,226606.800,148965.400,138112.900,133813.500,150802.100,0.000
152633.000,170618.600,240952.100,226346.800,148715.400,138003.600,133618.600,150508.500,0.000
152620.700,170476.600,240713.400,226213.800,148283.500,137831.900,133381.300,150231.100,0.000
152657.000,170500.200,240771.900,226369.700,148263.900,137835.000,133428.800,150347.000,0.000
152691.400,170656.400,241019.300,226581.300,148680.300,138009.100,133692.500,150686.000,0.000
152678.200,170728.200,241090.800,226542.800,148957.300,138118.900,133813.100,150788.800,0.000
152634.600,170617.600,240857.100,226281.400,148712.100,138016.600,133626.400,150510.500,0.000
152622.600,170478.200,240611.600,226141.300,148279.800,137847.900,133387.700,150231.700,0.000
152661.200,170508.000,240667.400,226300.700,148260.500,137848.500,133432.900,150343.300,0.000
152699.000,170662.600,240916.600,226506.700,148676.800,138019.900,133697.400,150687.900,0.000
152684.800,170728.500,240988.300,226463.000,148954.200,138124.200,133816.000,150786.500,0.000
152645.500,170613.500,240759.900,226208.300,148710.300,138021.500,133625.000,150503.100,0.000
152641.400,170473.900,240524.700,226074.800,148285.000,137853.000,133390.400,150226.200,0.000
152682.200,170497.200,240580.500,226226.800,148262.600,137848.700,133431.800,150332.200,0.000
152724.900,170655.100,240831.000,226447.100,148682.700,138020.100,133695.300,150679.200,0.000
152717.700,170728.700,240902.200,226412.500,148964.500,138128.100,133824.500,150788.800,0.000
152677.400,170620.200,240671.300,226153.400,148729.300,138033.600,133645.800,150515.000,0.000
152663.800,170478.400,240428.700,226015.400,148302.800,137872.500,133407.800,150237.400,0.000
152699.400,170499.000,240478.600,226173.400,148271.900,137853.100,133444.300,150341.300,0.000
152737.700,170657.700,240730.500,226396.900,148688.000,138019.500,133708.900,150692.900,0.000
152722.700,170734.300,240813.100,226364.700,148972.100,138127.600,133835.500,150801.800,0.000
152674.000,170625.300,240588.900,226108.300,148736.000,138029.200,133653.300,150529.400,0.000
152661.800,170486.200,240346.200,225967.700,148303.400,137860.600,133413.900,150247.400,0.000
152710.200,170520.500,240407.300,226129.800,148283.800,137870.000,133460.400,150361.200,0.000
152746.700,170673.800,240651.800,226342.600,148697.600,138043.100,133722.800,150709.900,0.000
152729.700,170737.500,240717.800,226297.700,148971.200,138140.800,133835.400,150804.700,0.000
152689.200,170634.300,240491.400,226042.300,148738.000,138047.100,133651.500,150529.000,0.000
152676.900,170498.300,240251.900,225909.400,148306.100,137876.500,133411.100,150247.500,0.000
152715.000,170528.300,240311.500,226070.100,148275.700,137872.800,133449.700,150351.000,0.000
152750.000,170682.700,240563.300,226285.200,148687.500,138041.100,133712.000,150692.200,0.000
152735.100,170755.800,240643.900,226255.400,148977.300,138158.500,133846.000,150813.300,0.000
152690.000,170645.000,240415.200,226001.500,148739.200,138060.500,133661.700,150536.600,0.000
152668.400,170496.100,240165.300,225846.300,148294.000,137885.100,133414.400,150242.900,0.000
152703.300,170520.800,240216.200,225996.000,148266.900,137885.900,133454.000,150347.700,0.000
152736.500,170677.800,240462.600,226216.000,148687.500,138059.500,133719.900,150696.200,0.000
152713.200,170748.700,240534.600,226178.400,148973.000,138166.300,133845.700,150803.700,0.000
152666.800,170641.100,240309.300,225922.600,148739.800,138071.000,133664.600,150532.800,0.000
152650.400,170500.300,240065.700,225778.400,148306.400,137898.200,133424.600,150250.100,0.000
152681.800,170520.200,240116.000,225926.800,148272.800,137889.800,133463.100,150349.800,0.000
152716.000,170673.100,240366.300,226146.700,148684.200,138058.300,133722.600,150693.200,0.000
152701.200,170745.500,240450.300,226118.100,148978.800,138163.700,133849.800,150810.200,0.000
152657.700,170638.000,240231.700,225868.800,148758.700,138068.900,133670.900,150543.900,0.000
152642.000,170489.800,239982.800,225724.700,148316.400,137892.800,133423.700,150257.400,0.000
152672.300,170498.300,240014.200,225865.200,148260.600,137873.200,133444.200,150340.300,0.000
152707.800,170657.600,240260.900,226085.300,148674.100,138046.100,133710.800,150688.000,0.000
152696.800,170747.600,240353.600,226060.700,148985.200,138171.300,133854.300,150822.100,0.000
152650.400,170646.500,240136.800,225803.000,148770.600,138078.400,133674.100,150553.600,0.000
152630.300,170489.500,239879.900,225649.100,148315.000,137888.900,133416.300,150248.100,0.000
152662.200,170495.600,239914.600,225793.000,148249.200,137864.700,133434.900,150333.800,0.000
152698.300,170652.700,240168.300,226014.800,148664.700,138035.700,133698.700,150679.000,0.000
152682.900,170737.500,240262.000,225989.400,148980.100,138157.600,133839.200,150811.300,0.000
152631.900,170629.600,240039.500,225729.600,148765.100,138067.700,133662.800,150545.300,0.000
152611.700,170465.900,239779.200,225577.900,148305.800,137872.200,133410.000,150245.200,0.000
152651.800,170474.400,239814.400,225728.600,148241.500,137851.900,133431.100,150329.400,0.000
152695.000,170638.700,240070.800,225957.000,148658.900,138030.800,133700.400,150682.800,0.000
152686.000,170735.900,240174.700,225935.600,148984.500,138165.600,133846.500,150822.800,0.000
152639.500,170638.000,239961.300,225676.100,148779.500,138080.700,133672.700,150559.500,0.000
152622.100,170483.900,239704.500,225521.800,148329.900,137899.000,133417.800,150261.000,0.000
152656.500,170487.000,239734.800,225664.800,148257.700,137875.200,133433.500,150341.500,0.000
152693.900,170641.600,239983.400,225883.600,148663.000,138043.900,133700.800,150691.400,0.000
152678.400,170730.000,240077.100,225856.400,148979.700,138173.800,133849.700,150828.700,0.000
152635.900,170634.900,239865.600,225608.600,148780.000,138092.600,133685.900,150573.500,0.000
152625.200,170483.300,239610.600,225460.700,148329.200,137911.400,133431.900,150270.300,0.000
152665.700,170490.000,239643.600,225602.400,148256.600,137884.900,133448.500,150338.300,0.000
152699.900,170645.500,239895.400,225822.200,148662.400,138051.200,133713.600,150682.200,0.000
152688.900,170739.700,240001.100,225802.500,148989.000,138181.700,133864.500,150827.600,0.000
152643.900,170639.300,239789.000,225549.200,148785.700,138087.200,133694.300,150574.100,0.000
152623.100,170476.100,239527.400,225394.600,148327.800,137900.600,133434.000,150270.400,0.000
152655.600,170475.300,239553.800,225535.700,148244.900,137870.100,133442.400,150340.200,0.000
152691.000,170628.200,239802.700,225757.700,148642.800,138030.700,133700.400,150682.100,0.000
152681.100,170724.200,239908.100,225745.600,148968.000,138160.700,133849.900,150823.600,0.000
152635.500,170626.300,239695.900,225491.400,148767.100,138072.500,133679.400,150561.200,0.000
152614.900,170462.700,239430.000,225328.700,148307.600,137878.200,133417.000,150252.800,0.000
152652.400,170465.900,239460.000,225466.900,148227.000,137844.100,133424.400,150322.600,0.000
152692.900,170627.400,239719.400,225691.000,148638.000,138013.900,133688.900,150672.000,0.000
152685.300,170724.200,239828.300,225675.600,148972.100,138149.100,133845.200,150818.200,0.000
152643.900,170631.100,239622.800,225425.900,148779.500,138070.900,133685.200,150566.600,0.000
152620.000,170467.300,239356.200,225266.100,148318.500,137882.600,133428.400,150262.800,0.000
152655.300,170467.100,239381.500,225405.200,148235.500,137860.300,133435.400,150330.000,0.000
152694.600,170619.000,239627.800,225631.100,148632.700,138016.600,133695.400,150675.400,0.000
152684.100,170716.200,239731.600,225616.800,148961.200,138148.600,133850.100,150818.100,0.000
152642.300,170628.200,239527.100,225366.000,148773.400,138071.200,133687.800,150562.500,0.000
152623.400,170471.800,239269.500,225208.100,148321.400,137882.600,133431.300,150259.900,0.000
152658.700,170474.900,239300.500,225350.200,148241.300,137853.900,133443.500,150333.100,0.000
152693.100,170630.200,239553.600,225579.500,148646.100,138023.500,133706.200,150682.200,0.000
152678.900,170720.200,239655.800,225562.100,148971.300,138153.600,133853.400,150812.000,0.000
152630.100,170614.500,239442.100,225305.000,148770.400,138063.100,133682.400,150555.600,0.000
152614.400,170455.600,239185.600,225148.500,148320.500,137880.000,133428.200,150259.500,0.000
152652.900,170462.000,239216.200,225287.800,148241.000,137859.300,133440.000,150331.400,0.000
152697.600,170622.900,239472.800,225521.700,148643.200,138032.400,133703.800,150684.600,0.000
152681.600,170706.600,239571.500,225504.800,148961.300,138152.700,133852.400,150829.800,0.000
152633.700,170608.100,239359.200,225246.900,148760.200,138065.000,133681.500,150564.300,0.000
152617.100,170459.700,239108.300,225091.600,148316.300,137891.400,133430.600,150261.600,0.000
152647.300,170461.500,239135.000,225229.900,148236.400,137866.800,133441.200,150333.900,0.000
152683.500,170615.000,239384.400,225457.900,148638.800,138028.600,133701.800,150677.900,0.000
152670.400,170706.800,239487.800,225443.600,148964.500,138154.600,133852.600,150824.900,0.000
152625.200,170611.000,239281.800,225194.000,148772.000,138072.100,133687.900,150577.400,0.000
152609.800,170457.200,239024.700,225034.000,148322.400,137891.800,133435.200,150271.100,0.000
152643.900,170458.800,239048.300,225164.200,148238.900,137863.500,133441.600,150333.800,0.000
152687.000,170616.300,239300.700,225394.700,148640.100,138033.300,133703.500,150682.900,0.000
152681.600,170711.500,239409.900,225386.600,148968.700,138163.800,133856.700,150829.100,0.000
152632.300,170612.500,239200.200,225136.200,148772.900,138075.100,133688.100,150570.900,0.000
152611.300,170458.100,238941.000,224978.500,148324.900,137889.800,133429.700,150263.800,0.000
152647.300,170464.900,238970.200,225114.900,148245.000,137862.700,133436.100,150324.300,0.000
152690.800,170622.700,239226.500,225349.200,148648.500,138031.100,133700.200,150674.300,0.000
152685.300,170721.900,239340.700,225346.300,148981.500,138166.800,133858.900,150829.200,0.000
152632.600,170620.800,239131.000,225088.600,148785.300,138080.900,133689.300,150566.600,0.000
152612.400,170460.100,238870.100,224927.600,148329.200,137893.300,133433.800,150259.000,0.000
152647.200,170460.100,238890.300,225060.300,148233.300,137857.400,133438.900,150321.700,0.000
152685.000,170615.200,239136.600,225286.900,148624.400,138019.300,133691.100,150664.100,0.000
152673.400,170713.900,239247.300,225281.900,148963.900,138154.200,133846.400,150818.200,0.000
152630.300,170623.800,239051.800,225040.600,148790.100,138078.400,133692.200,150572.400,0.000
152610.700,170464.300,238793.200,224879.300,148332.400,137889.500,133431.400,150256.800,0.000
152649.800,170461.300,238815.200,225016.600,148234.700,137857.300,133429.700,150310.500,0.000
152697.400,170621.500,239069.300,225251.900,148634.400,138034.200,133689.700,150659.500,0.000
152688.400,170724.500,239184.100,225246.000,148975.100,138160.700,133851.400,150816.500,0.000
